!CSV A.01.01
!Keysight Technologies,N5222B,MY57181453,A.13.95.07
!Date: Saturday, August 12, 2023 09:24:04
!Source: Standard

BEGIN CH1_DATA
Freq(Hz),S21 Log Mag(dB)
3000000000,-4.5003853
3009000000,-4.7887063
3018000000,-3.4471617
3027000000,-5.4487514
3036000000,-5.509285
3045000000,-4.0776558
3054000000,-6.0025148
3063000000,-4.0326385
3072000000,-3.5594966
3081000000,-5.0878668
3090000000,-3.2877645
3099000000,-4.2835789
3108000000,-5.8470149
3117000000,-3.3520789
3126000000,-4.9990048
3135000000,-4.3656182
3144000000,-3.7784262
3153000000,-5.3571949
3162000000,-5.1064568
3171000000,-4.5041585
3180000000,-7.2216201
3189000000,-4.6035471
3198000000,-4.1324573
3207000000,-3.8217263
3216000000,-2.8121572
3225000000,-2.3353031
3234000000,-2.8908541
3243000000,-3.2967858
3252000000,-2.5436561
3261000000,-4.3585448
3270000000,-2.9993441
3279000000,-2.9866629
3288000000,-4.4306359
3297000000,-3.3992608
3306000000,-4.6116276
3315000000,-4.958539
3324000000,-3.5169957
3333000000,-5.2792397
3342000000,-5.1319718
3351000000,-4.388886
3360000000,-5.2050672
3369000000,-5.7426252
3378000000,-5.5667663
3387000000,-7.27285
3396000000,-8.0032949
3405000000,-8.1954317
3414000000,-8.9971952
3423000000,-9.4011745
3432000000,-9.3993816
3441000000,-10.826473
3450000000,-10.443197
3459000000,-9.6850462
3468000000,-10.029646
3477000000,-8.9920435
3486000000,-8.2492867
3495000000,-8.8842964
3504000000,-7.3609343
3513000000,-8.6585369
3522000000,-9.074585
3531000000,-7.2365785
3540000000,-9.2282753
3549000000,-8.1187534
3558000000,-7.1548519
3567000000,-7.5717487
3576000000,-6.5336108
3585000000,-6.7646642
3594000000,-6.8888407
3603000000,-6.775744
3612000000,-6.9005456
3621000000,-6.5069451
3630000000,-6.476234
3639000000,-5.5220428
3648000000,-4.8192096
3657000000,-4.3907499
3666000000,-4.0730247
3675000000,-4.6946273
3684000000,-4.8424454
3693000000,-5.7781682
3702000000,-5.2460079
3711000000,-4.3102965
3720000000,-5.1752543
3729000000,-4.1432991
3738000000,-3.9784729
3747000000,-4.7479701
3756000000,-4.7497153
3765000000,-4.7993708
3774000000,-4.4141607
3783000000,-3.843787
3792000000,-3.9029365
3801000000,-5.0351658
3810000000,-4.1210151
3819000000,-5.1354551
3828000000,-4.5475364
3837000000,-4.0823579
3846000000,-5.653729
3855000000,-5.2415328
3864000000,-5.0665317
3873000000,-6.7547574
3882000000,-5.6666327
3891000000,-6.4903092
3900000000,-8.0351667
3909000000,-6.1833243
3918000000,-7.6397853
3927000000,-5.8174653
3936000000,-5.4754696
3945000000,-5.4529943
3954000000,-4.5347486
3963000000,-4.9852343
3972000000,-4.5777192
3981000000,-4.365849
3990000000,-4.1843848
3999000000,-3.5194991
4008000000,-4.4034238
4017000000,-3.933116
4026000000,-4.8414302
4035000000,-4.9062643
4044000000,-4.0382857
4053000000,-5.2201805
4062000000,-4.3054905
4071000000,-3.90185
4080000000,-5.169663
4089000000,-4.1157804
4098000000,-4.9901996
4107000000,-6.1622486
4116000000,-5.2648153
4125000000,-6.2194915
4134000000,-6.7921543
4143000000,-6.771946
4152000000,-7.6122112
4161000000,-8.0304575
4170000000,-7.7925882
4179000000,-8.8613558
4188000000,-10.447339
4197000000,-10.144354
4206000000,-9.639082
4215000000,-9.0834494
4224000000,-8.4551411
4233000000,-9.6711969
4242000000,-10.257174
4251000000,-8.9237938
4260000000,-11.140965
4269000000,-8.508255
4278000000,-8.8231993
4287000000,-10.988484
4296000000,-7.8793945
4305000000,-9.2240639
4314000000,-10.642558
4323000000,-8.4886465
4332000000,-11.24195
4341000000,-9.8360109
4350000000,-8.8776836
4359000000,-12.034544
4368000000,-10.349008
4377000000,-11.139121
4386000000,-11.033085
4395000000,-10.642357
4404000000,-10.817531
4413000000,-9.5654716
4422000000,-9.7242193
4431000000,-8.6082506
4440000000,-9.1251993
4449000000,-8.6647158
4458000000,-7.3278737
4467000000,-8.3735924
4476000000,-7.5144358
4485000000,-7.330617
4494000000,-9.2448645
4503000000,-6.7733603
4512000000,-8.2153883
4521000000,-7.5874104
4530000000,-6.04386
4539000000,-8.0066824
4548000000,-7.1380582
4557000000,-7.7185802
4566000000,-7.9243393
4575000000,-5.9731159
4584000000,-6.9130316
4593000000,-5.9692364
4602000000,-5.4024501
4611000000,-5.8753257
4620000000,-5.5915394
4629000000,-5.7048049
4638000000,-5.5101323
4647000000,-6.4162788
4656000000,-5.8395886
4665000000,-6.913589
4674000000,-7.2923574
4683000000,-6.7459846
4692000000,-7.5098386
4701000000,-6.3112378
4710000000,-6.1275043
4719000000,-5.9630742
4728000000,-5.0702362
4737000000,-5.3856735
4746000000,-4.6302691
4755000000,-4.6845965
4764000000,-5.0323291
4773000000,-5.120851
4782000000,-5.9755883
4791000000,-5.0388112
4800000000,-4.6297054
4809000000,-4.1837497
4818000000,-4.0944052
4827000000,-4.0395117
4836000000,-3.934752
4845000000,-4.1001863
4854000000,-3.3461986
4863000000,-3.3888767
4872000000,-3.5525272
4881000000,-2.7490311
4890000000,-3.1891956
4899000000,-3.1308594
4908000000,-3.2468095
4917000000,-3.4871213
4926000000,-3.4203672
4935000000,-3.6859345
4944000000,-3.1206388
4953000000,-3.0883329
4962000000,-3.0766184
4971000000,-2.4914122
4980000000,-2.3867321
4989000000,-1.9439411
4998000000,-2.4628053
5007000000,-2.5467086
5016000000,-2.8786314
5025000000,-4.059916
5034000000,-2.883975
5043000000,-3.9603434
5052000000,-3.7002254
5061000000,-3.8416765
5070000000,-4.2812791
5079000000,-4.1722231
5088000000,-3.5351043
5097000000,-3.1961174
5106000000,-2.7886937
5115000000,-3.0289841
5124000000,-2.3555014
5133000000,-2.9996688
5142000000,-3.1147735
5151000000,-2.4090896
5160000000,-3.0161994
5169000000,-2.702477
5178000000,-3.1948521
5187000000,-2.388999
5196000000,-2.56552
5205000000,-2.3336957
5214000000,-1.8509698
5223000000,-2.6392701
5232000000,-2.2219274
5241000000,-2.2833092
5250000000,-2.4255517
5259000000,-2.7060268
5268000000,-2.5698752
5277000000,-2.7680786
5286000000,-2.6033835
5295000000,-2.6542699
5304000000,-2.9355223
5313000000,-2.6680572
5322000000,-3.0172565
5331000000,-2.7983329
5340000000,-2.8179617
5349000000,-2.9421322
5358000000,-2.9106252
5367000000,-2.7989237
5376000000,-2.7262363
5385000000,-2.4690292
5394000000,-2.6341891
5403000000,-2.6201596
5412000000,-2.6099107
5421000000,-2.9324327
5430000000,-3.0156393
5439000000,-2.9941938
5448000000,-3.0390449
5457000000,-3.2780318
5466000000,-3.638593
5475000000,-3.6165903
5484000000,-4.0511475
5493000000,-3.9496911
5502000000,-3.6684334
5511000000,-3.844593
5520000000,-3.9374719
5529000000,-4.1876397
5538000000,-4.3758144
5547000000,-4.0637269
5556000000,-4.6098781
5565000000,-4.2042918
5574000000,-4.3021884
5583000000,-4.4927526
5592000000,-4.1682248
5601000000,-4.4216309
5610000000,-4.3998284
5619000000,-4.5321159
5628000000,-4.9444704
5637000000,-4.8317161
5646000000,-4.8957748
5655000000,-5.1621737
5664000000,-4.7288737
5673000000,-5.7646551
5682000000,-5.0088539
5691000000,-5.2003927
5700000000,-5.827836
5709000000,-5.3786874
5718000000,-6.1701088
5727000000,-6.1108165
5736000000,-5.5747814
5745000000,-6.0911632
5754000000,-5.5621023
5763000000,-5.48347
5772000000,-6.1674848
5781000000,-5.4088755
5790000000,-5.8529496
5799000000,-5.786756
5808000000,-5.4445696
5817000000,-6.0718436
5826000000,-5.2355447
5835000000,-5.5227346
5844000000,-4.9735703
5853000000,-4.9171338
5862000000,-4.9979138
5871000000,-3.8901308
5880000000,-4.4073076
5889000000,-4.1281691
5898000000,-3.4664495
5907000000,-4.540513
5916000000,-3.9364116
5925000000,-3.8666558
5934000000,-4.4789414
5943000000,-3.7217846
5952000000,-4.1137199
5961000000,-3.87395
5970000000,-3.6689463
5979000000,-3.3967645
5988000000,-3.3181753
5997000000,-3.315109
6006000000,-3.4800575
6015000000,-3.0208688
6024000000,-3.6534064
6033000000,-3.6598675
6042000000,-3.8574314
6051000000,-4.0518847
6060000000,-3.7413423
6069000000,-4.7759652
6078000000,-3.945657
6087000000,-4.5695534
6096000000,-5.5837445
6105000000,-4.747232
6114000000,-5.7146683
6123000000,-5.3756785
6132000000,-4.8799267
6141000000,-5.0040774
6150000000,-4.3346992
6159000000,-4.2079744
6168000000,-4.2178092
6177000000,-4.2866206
6186000000,-4.5722632
6195000000,-4.0856481
6204000000,-3.8278039
6213000000,-3.841476
6222000000,-3.9711299
6231000000,-4.5781198
6240000000,-4.3474808
6249000000,-4.8015356
6258000000,-4.9871764
6267000000,-4.9896283
6276000000,-5.7939277
6285000000,-5.5981359
6294000000,-5.8709788
6303000000,-6.0496407
6312000000,-5.8933043
6321000000,-6.0969234
6330000000,-7.076108
6339000000,-6.2131171
6348000000,-6.2273154
6357000000,-6.4553499
6366000000,-6.6211948
6375000000,-6.3097591
6384000000,-6.5841117
6393000000,-6.673943
6402000000,-7.1755862
6411000000,-6.4844508
6420000000,-6.5751462
6429000000,-6.21243
6438000000,-6.4125018
6447000000,-6.2533255
6456000000,-6.1937184
6465000000,-6.4960551
6474000000,-5.9775372
6483000000,-6.1545987
6492000000,-6.5448275
6501000000,-6.2791195
6510000000,-6.2707009
6519000000,-6.4775047
6528000000,-5.6790662
6537000000,-6.4911585
6546000000,-6.7312589
6555000000,-6.3473296
6564000000,-6.3880754
6573000000,-5.9901609
6582000000,-6.6139035
6591000000,-5.6142335
6600000000,-5.6937609
6609000000,-5.6209655
6618000000,-4.8592453
6627000000,-4.8529987
6636000000,-4.5592012
6645000000,-4.2404971
6654000000,-4.390552
6663000000,-3.9883435
6672000000,-4.0348473
6681000000,-4.0731058
6690000000,-4.3082509
6699000000,-4.1359391
6708000000,-4.3667898
6717000000,-4.1893244
6726000000,-4.3532667
6735000000,-4.1207323
6744000000,-4.729146
6753000000,-4.866271
6762000000,-5.3675933
6771000000,-4.9744692
6780000000,-5.2741547
6789000000,-4.9419088
6798000000,-5.0443783
6807000000,-5.6470213
6816000000,-4.8697963
6825000000,-4.8211331
6834000000,-5.3674688
6843000000,-5.2087264
6852000000,-4.9017253
6861000000,-4.7749424
6870000000,-4.3572855
6879000000,-5.2241879
6888000000,-5.0264506
6897000000,-6.1865711
6906000000,-5.1537561
6915000000,-5.2068777
6924000000,-5.4698606
6933000000,-4.921937
6942000000,-5.7476773
6951000000,-5.3052702
6960000000,-4.971487
6969000000,-5.9148498
6978000000,-5.2893915
6987000000,-5.1926303
6996000000,-5.418036
7005000000,-4.4712086
7014000000,-4.631073
7023000000,-4.5201511
7032000000,-4.7707367
7041000000,-4.9237375
7050000000,-4.4707608
7059000000,-4.2330852
7068000000,-3.7572267
7077000000,-3.7809448
7086000000,-2.8620014
7095000000,-3.2120411
7104000000,-3.308171
7113000000,-2.7902942
7122000000,-3.8540673
7131000000,-3.6467698
7140000000,-3.2701049
7149000000,-3.2837567
7158000000,-3.0057154
7167000000,-2.766233
7176000000,-3.2007711
7185000000,-2.2033293
7194000000,-2.2014744
7203000000,-2.3797286
7212000000,-1.7607785
7221000000,-1.3358384
7230000000,-2.1142721
7239000000,-1.8376635
7248000000,-1.9549493
7257000000,-2.5866113
7266000000,-2.8812633
7275000000,-2.5228112
7284000000,-3.1248045
7293000000,-3.3596094
7302000000,-3.5499923
7311000000,-3.2761369
7320000000,-3.1256628
7329000000,-2.5932894
7338000000,-2.2878759
7347000000,-2.7927213
7356000000,-1.9869356
7365000000,-2.1542149
7374000000,-1.457705
7383000000,-2.2141786
7392000000,-2.2845592
7401000000,-2.6376896
7410000000,-2.1391621
7419000000,-2.1224937
7428000000,-1.8050964
7437000000,-1.6684368
7446000000,-2.3933687
7455000000,-2.3346734
7464000000,-2.6694431
7473000000,-2.9165094
7482000000,-2.2451732
7491000000,-2.1440887
7500000000,-1.6084958
7509000000,-1.2913949
7518000000,-1.4349895
7527000000,-1.5810034
7536000000,-1.6248856
7545000000,-0.95666289
7554000000,-1.622568
7563000000,-1.3693063
7572000000,-1.4126637
7581000000,-1.0276356
7590000000,-2.001668
7599000000,-1.1848458
7608000000,-1.9449624
7617000000,-2.114867
7626000000,-1.4304873
7635000000,-1.6161673
7644000000,-1.1197538
7653000000,-1.5746293
7662000000,-1.6828136
7671000000,-0.94026947
7680000000,-1.3327448
7689000000,-1.1658347
7698000000,-1.4081187
7707000000,-1.4926299
7716000000,-1.2960281
7725000000,-1.6542884
7734000000,-1.7089893
7743000000,-1.0730456
7752000000,-1.7918117
7761000000,-1.5991278
7770000000,-1.7594366
7779000000,-1.4604957
7788000000,-1.3536305
7797000000,-1.1116769
7806000000,-0.97034425
7815000000,-1.1622225
7824000000,-1.9377621
7833000000,-0.99769938
7842000000,-1.8300127
7851000000,-1.2918754
7860000000,-1.7021643
7869000000,-1.9301753
7878000000,-2.2202804
7887000000,-2.2765512
7896000000,-2.6561019
7905000000,-2.3052795
7914000000,-2.8969851
7923000000,-2.1674182
7932000000,-2.1860662
7941000000,-2.7620211
7950000000,-2.0378067
7959000000,-2.3827019
7968000000,-2.2443752
7977000000,-1.6894791
7986000000,-1.7691853
7995000000,-1.1668723
8004000000,-1.4558353
8013000000,-1.9899614
8022000000,-1.1171796
8031000000,-2.3104167
8040000000,-2.0148723
8049000000,-1.8505727
8058000000,-2.3272448
8067000000,-1.4091967
8076000000,-2.3208768
8085000000,-2.1438596
8094000000,-1.6409949
8103000000,-2.3837016
8112000000,-2.1049531
8121000000,-2.2301011
8130000000,-1.8871267
8139000000,-1.1295799
8148000000,-2.2762258
8157000000,-0.78930205
8166000000,-1.6623864
8175000000,-2.6165588
8184000000,-1.4767904
8193000000,-2.4035325
8202000000,-2.5458374
8211000000,-2.2448051
8220000000,-2.8956919
8229000000,-2.4361231
8238000000,-2.7351804
8247000000,-2.2559123
8256000000,-1.8754081
8265000000,-2.0613399
8274000000,-1.9087911
8283000000,-1.4970709
8292000000,-1.8040805
8301000000,-0.84380996
8310000000,-1.749114
8319000000,-1.4138526
8328000000,-0.98100585
8337000000,-1.2414981
8346000000,-1.4236945
8355000000,-1.6707466
8364000000,-1.6403887
8373000000,-1.4619849
8382000000,-2.088165
8391000000,-1.1256287
8400000000,-1.3087171
8409000000,-1.5674636
8418000000,-1.0729676
8427000000,-0.91813391
8436000000,-1.2990392
8445000000,-1.2000687
8454000000,-1.397839
8463000000,-0.66154349
8472000000,-1.260473
8481000000,-1.0110668
8490000000,-0.92928028
8499000000,-1.4403173
8508000000,-0.74954396
8517000000,-1.5054545
8526000000,-1.7511737
8535000000,-1.9242153
8544000000,-1.5895805
8553000000,-1.4259456
8562000000,-1.1890082
8571000000,-1.7491406
8580000000,-0.96455628
8589000000,-1.1396976
8598000000,-0.88939583
8607000000,-0.78837347
8616000000,-1.3188475
8625000000,-1.0820183
8634000000,-0.56930232
8643000000,-1.5158854
8652000000,-0.48224968
8661000000,-1.1261138
8670000000,-1.4922237
8679000000,-0.44301388
8688000000,-0.9259547
8697000000,-0.52619946
8706000000,-0.51085877
8715000000,-0.21072419
8724000000,-0.51717234
8733000000,-0.44539613
8742000000,-0.41097826
8751000000,-0.060814593
8760000000,-0.31768459
8769000000,-0.10963143
8778000000,0.082827687
8787000000,-0.46511859
8796000000,-0.71358854
8805000000,-0.58727396
8814000000,-0.65895861
8823000000,-0.69136029
8832000000,-0.61156029
8841000000,0.097753234
8850000000,0.12870049
8859000000,-0.40739861
8868000000,0.16492067
8877000000,-0.080360726
8886000000,-0.14965019
8895000000,0.69499975
8904000000,-0.23145001
8913000000,0.66778976
8922000000,1.0874056
8931000000,-0.372143
8940000000,0.20136729
8949000000,0.62844729
8958000000,-0.3712475
8967000000,0.16066457
8976000000,0.067230053
8985000000,-0.085662805
8994000000,-0.11990876
9003000000,0.54422772
9012000000,-0.2652311
9021000000,-0.20073013
9030000000,0.58339775
9039000000,-0.47143602
9048000000,0.26784942
9057000000,-0.11868837
9066000000,-0.88265228
9075000000,0.4300862
9084000000,-0.23752221
9093000000,-0.56947476
9102000000,0.395264
9111000000,-0.4273285
9120000000,0.0014585833
9129000000,-0.020258272
9138000000,-0.066110738
9147000000,0.19653183
9156000000,0.6226368
9165000000,-0.025596093
9174000000,-0.083644412
9183000000,0.45916581
9192000000,0.56096041
9201000000,0.41461697
9210000000,0.92665672
9219000000,0.99019116
9228000000,0.30502361
9237000000,0.74605721
9246000000,0.64514488
9255000000,1.0737294
9264000000,1.1494637
9273000000,1.2143638
9282000000,1.4553347
9291000000,0.54362261
9300000000,0.84967119
9309000000,0.85049635
9318000000,1.0268985
9327000000,1.1281153
9336000000,0.80789161
9345000000,1.2015623
9354000000,1.5663182
9363000000,1.4886086
9372000000,1.5001749
9381000000,1.4384387
9390000000,2.0456717
9399000000,2.157635
9408000000,1.9738897
9417000000,1.5347861
9426000000,1.9362184
9435000000,2.0074847
9444000000,1.2762316
9453000000,1.6182867
9462000000,1.8031594
9471000000,2.2503462
9480000000,1.5564369
9489000000,2.412698
9498000000,1.7864476
9507000000,2.0634453
9516000000,1.8840839
9525000000,1.6514616
9534000000,2.1576355
9543000000,1.9434353
9552000000,2.532208
9561000000,2.1796541
9570000000,2.8903017
9579000000,2.6731296
9588000000,1.9443965
9597000000,2.4109683
9606000000,2.717623
9615000000,2.2380435
9624000000,2.1344166
9633000000,1.5898837
9642000000,2.3792934
9651000000,1.2830249
9660000000,1.1333642
9669000000,1.1358304
9678000000,1.963214
9687000000,1.4570301
9696000000,1.2598574
9705000000,1.38267
9714000000,1.9473615
9723000000,2.3347578
9732000000,1.7520615
9741000000,1.7922069
9750000000,1.9969643
9759000000,1.8214453
9768000000,2.1513283
9777000000,1.162699
9786000000,1.2236443
9795000000,1.9491309
9804000000,1.3752793
9813000000,0.43033862
9822000000,0.63922822
9831000000,1.5282606
9840000000,0.7740463
9849000000,1.0960534
9858000000,1.5511589
9867000000,1.075579
9876000000,1.9630286
9885000000,0.98739135
9894000000,1.2500086
9903000000,1.750681
9912000000,1.7408671
9921000000,1.5273621
9930000000,1.5481777
9939000000,1.0520631
9948000000,1.2124738
9957000000,1.9481554
9966000000,1.9631835
9975000000,1.7814234
9984000000,1.8590252
9993000000,1.0483646
10002000000,1.4501241
10011000000,1.247936
10020000000,1.0283302
10029000000,0.35222673
10038000000,0.76856256
10047000000,0.59479302
10056000000,0.71010119
10065000000,-0.2458086
10074000000,0.068947867
10083000000,0.49346906
10092000000,0.72527546
10101000000,0.67754203
10110000000,1.1993719
10119000000,0.90298408
10128000000,1.5286806
10137000000,0.70183104
10146000000,0.14177284
10155000000,0.75148213
10164000000,0.39981437
10173000000,0.047993038
10182000000,-0.48876816
10191000000,-0.39305571
10200000000,-0.77333516
10209000000,0.14653562
10218000000,-0.37546295
10227000000,-0.16560248
10236000000,0.1120185
10245000000,1.3065693
10254000000,0.3400186
10263000000,0.54898989
10272000000,1.1260701
10281000000,1.6408484
10290000000,1.820142
10299000000,0.48970705
10308000000,1.1551329
10317000000,0.983455
10326000000,-0.033255074
10335000000,0.91954136
10344000000,0.40929464
10353000000,-0.48892924
10362000000,-0.55615544
10371000000,-0.99843854
10380000000,-0.23677884
10389000000,-1.0915122
10398000000,0.25660905
10407000000,0.3722361
10416000000,1.1489727
10425000000,1.7203374
10434000000,1.4927292
10443000000,1.7195158
10452000000,2.0426302
10461000000,1.4530834
10470000000,0.91906625
10479000000,0.84023958
10488000000,0.55274087
10497000000,1.2064922
10506000000,-0.56093216
10515000000,0.20616876
10524000000,0.47775313
10533000000,-0.60632879
10542000000,0.23637925
10551000000,0.04312925
10560000000,0.60434014
10569000000,0.63840377
10578000000,1.3163253
10587000000,0.37407821
10596000000,1.4475816
10605000000,0.89139313
10614000000,0.71720153
10623000000,1.506513
10632000000,-0.24493277
10641000000,0.10807716
10650000000,-0.43200216
10659000000,-0.11304225
10668000000,-1.4121919
10677000000,-1.2708998
10686000000,-1.3210466
10695000000,-0.026190354
10704000000,1.2541251
10713000000,-0.35982195
10722000000,0.26986808
10731000000,0.77680492
10740000000,0.16257922
10749000000,-0.10780706
10758000000,0.60749513
10767000000,0.3477242
10776000000,0.72800016
10785000000,0.73972976
10794000000,0.56972486
10803000000,0.78108013
10812000000,-1.3798715
10821000000,-2.1370807
10830000000,-1.4838663
10839000000,-0.95736289
10848000000,-0.52159137
10857000000,-0.46936771
10866000000,0.63506782
10875000000,0.28604507
10884000000,0.76001173
10893000000,-0.02286073
10902000000,-0.29996809
10911000000,0.27976343
10920000000,0.7838704
10929000000,0.46110594
10938000000,-0.0722204
10947000000,-0.96672267
10956000000,-0.47814232
10965000000,-1.617507
10974000000,-2.2522335
10983000000,-2.4271934
10992000000,-2.1750238
11001000000,-1.651227
11010000000,-1.8396016
11019000000,-2.0313859
11028000000,-0.69513595
11037000000,-0.58959526
11046000000,-0.038906097
11055000000,-0.74134177
11064000000,-0.13946334
11073000000,-0.00056131172
11082000000,-0.24028547
11091000000,0.64105076
11100000000,-0.24296115
11109000000,-0.71753764
11118000000,-1.2208704
11127000000,-1.1567359
11136000000,-1.9739192
11145000000,-2.3482704
11154000000,-3.0537245
11163000000,-2.3601551
11172000000,-2.382596
11181000000,-3.1774342
11190000000,-1.5825504
11199000000,-1.9834787
11208000000,-1.3624328
11217000000,-1.9509827
11226000000,-1.1475624
11235000000,-0.5838365
11244000000,-3.3344519
11253000000,-4.036797
11262000000,-2.916219
11271000000,-4.4427419
11280000000,-3.9171646
11289000000,-5.2270422
11298000000,-6.9343414
11307000000,-5.8774977
11316000000,-4.67939
11325000000,-3.5066907
11334000000,-2.73944
11343000000,-3.499661
11352000000,-2.8903525
11361000000,-2.6445386
11370000000,-3.0421302
11379000000,-2.9496975
11388000000,-3.465847
11397000000,-3.1757011
11406000000,-5.8891902
11415000000,-5.7667003
11424000000,-6.9140444
11433000000,-6.3340611
11442000000,-5.9522834
11451000000,-7.7180276
11460000000,-7.7700081
11469000000,-3.3005266
11478000000,-4.0446858
11487000000,-3.5986073
11496000000,-4.3446321
11505000000,-5.5869131
11514000000,-5.0823736
11523000000,-3.8821771
11532000000,-5.1481137
11541000000,-7.6397529
11550000000,-6.934845
11559000000,-4.9523516
11568000000,-7.2740569
11577000000,-6.8572836
11586000000,-6.2918067
11595000000,-4.7329612
11604000000,-7.0918899
11613000000,-6.4085455
11622000000,-7.0455208
11631000000,-4.8658543
11640000000,-5.6400924
11649000000,-5.4914179
11658000000,-5.361814
11667000000,-6.9199114
11676000000,-5.2219028
11685000000,-7.2167907
11694000000,-6.1051989
11703000000,-7.5056505
11712000000,-5.2966332
11721000000,-5.5544081
11730000000,-5.9479356
11739000000,-7.0353394
11748000000,-6.201211
11757000000,-5.7726588
11766000000,-5.8811646
11775000000,-5.5478406
11784000000,-4.7992277
11793000000,-4.0591726
11802000000,-5.0451288
11811000000,-3.5129662
11820000000,-5.640985
11829000000,-7.6819243
11838000000,-5.211524
11847000000,-5.622848
11856000000,-4.5711789
11865000000,-6.5803246
11874000000,-7.34201
11883000000,-5.4870424
11892000000,-5.5782375
11901000000,-5.0576291
11910000000,-4.7480659
11919000000,-4.2168736
11928000000,-2.0433171
11937000000,-4.1826739
11946000000,-3.3640769
11955000000,-2.9220033
11964000000,-3.9316223
11973000000,-4.0730186
11982000000,-5.0889444
11991000000,-5.8712196
12000000000,-2.6600282
END

