!CSV A.01.01
!Keysight Technologies,N5222B,MY57181453,A.13.95.07
!Date: Monday, August 14, 2023 04:10:00
!Source: Standard

BEGIN CH1_DATA
Freq(Hz),S21 Log Mag(dB)
3000000000,-3.8425243
3009000000,-4.5042095
3018000000,-3.6721115
3027000000,-5.4813499
3036000000,-4.8166065
3045000000,-4.8924603
3054000000,-6.265645
3063000000,-4.7363744
3072000000,-5.6378312
3081000000,-6.4551544
3090000000,-4.5108981
3099000000,-6.0699978
3108000000,-7.7856131
3117000000,-5.8474913
3126000000,-8.5349245
3135000000,-8.8526907
3144000000,-6.5476437
3153000000,-10.298608
3162000000,-9.6965122
3171000000,-8.5493441
3180000000,-12.075809
3189000000,-7.6721864
3198000000,-6.8199539
3207000000,-7.8048577
3216000000,-6.361927
3225000000,-6.0608382
3234000000,-6.9310255
3243000000,-7.0137081
3252000000,-6.9805784
3261000000,-7.6700172
3270000000,-8.4778118
3279000000,-7.299078
3288000000,-8.4014997
3297000000,-8.7478113
3306000000,-6.568419
3315000000,-9.4719973
3324000000,-8.6114082
3333000000,-7.3487949
3342000000,-11.721335
3351000000,-10.516115
3360000000,-10.210052
3369000000,-13.799252
3378000000,-9.877018
3387000000,-9.7852869
3396000000,-11.991902
3405000000,-10.026377
3414000000,-10.24261
3423000000,-11.612844
3432000000,-9.8938398
3441000000,-10.459633
3450000000,-10.467078
3459000000,-10.084278
3468000000,-10.367867
3477000000,-10.02589
3486000000,-10.78351
3495000000,-9.091527
3504000000,-9.7620802
3513000000,-9.6700525
3522000000,-8.0711899
3531000000,-9.4503574
3540000000,-7.9852166
3549000000,-7.2601199
3558000000,-8.0371647
3567000000,-8.2822628
3576000000,-8.2558317
3585000000,-10.033973
3594000000,-9.6165705
3603000000,-9.5401831
3612000000,-11.669888
3621000000,-9.7549782
3630000000,-10.464695
3639000000,-9.751729
3648000000,-9.1245527
3657000000,-9.8158646
3666000000,-9.9978333
3675000000,-10.333612
3684000000,-10.732997
3693000000,-10.012306
3702000000,-10.184432
3711000000,-8.5761185
3720000000,-8.4313211
3729000000,-7.6612735
3738000000,-7.5959663
3747000000,-8.5920448
3756000000,-8.9283724
3765000000,-11.155344
3774000000,-12.990007
3783000000,-11.71426
3792000000,-12.509996
3801000000,-10.722833
3810000000,-9.7115583
3819000000,-11.104609
3828000000,-10.732008
3837000000,-9.5411215
3846000000,-12.0953
3855000000,-12.691215
3864000000,-14.51693
3873000000,-16.796085
3882000000,-11.990027
3891000000,-12.168075
3900000000,-12.009935
3909000000,-9.3673639
3918000000,-9.5596714
3927000000,-8.3886051
3936000000,-7.304636
3945000000,-10.848219
3954000000,-10.553303
3963000000,-9.6713104
3972000000,-10.985433
3981000000,-12.085251
3990000000,-11.348352
3999000000,-11.205215
4008000000,-10.980663
4017000000,-10.6186
4026000000,-10.63998
4035000000,-12.419223
4044000000,-11.188066
4053000000,-11.585203
4062000000,-14.567738
4071000000,-14.268781
4080000000,-18.026678
4089000000,-17.669853
4098000000,-13.413074
4107000000,-15.290467
4116000000,-12.800442
4125000000,-10.961701
4134000000,-12.83056
4143000000,-14.061255
4152000000,-14.273257
4161000000,-17.320753
4170000000,-15.604616
4179000000,-14.919771
4188000000,-14.523524
4197000000,-12.645613
4206000000,-10.988991
4215000000,-10.27099
4224000000,-10.087316
4233000000,-8.9573851
4242000000,-10.636022
4251000000,-12.571358
4260000000,-11.971081
4269000000,-12.21995
4278000000,-11.809068
4287000000,-10.081086
4296000000,-11.724968
4305000000,-10.736907
4314000000,-9.1043215
4323000000,-11.706497
4332000000,-9.4616261
4341000000,-8.7854815
4350000000,-11.722087
4359000000,-10.883236
4368000000,-11.873154
4377000000,-13.660262
4386000000,-10.920334
4395000000,-12.984674
4404000000,-13.372789
4413000000,-12.514101
4422000000,-14.037148
4431000000,-11.2315
4440000000,-12.132859
4449000000,-13.564155
4458000000,-11.586525
4467000000,-12.389359
4476000000,-12.429548
4485000000,-9.9263182
4494000000,-12.340807
4503000000,-12.899905
4512000000,-12.843292
4521000000,-17.124952
4530000000,-12.989072
4539000000,-12.649403
4548000000,-12.669345
4557000000,-10.455935
4566000000,-10.561529
4575000000,-9.8534698
4584000000,-8.7247009
4593000000,-10.404702
4602000000,-9.7611742
4611000000,-9.7771635
4620000000,-11.921378
4629000000,-9.4650221
4638000000,-9.3639727
4647000000,-11.488404
4656000000,-9.8482199
4665000000,-11.487753
4674000000,-11.493678
4683000000,-9.837389
4692000000,-11.18325
4701000000,-10.866121
4710000000,-10.521579
4719000000,-12.059042
4728000000,-10.999164
4737000000,-11.694165
4746000000,-11.010065
4755000000,-10.263159
4764000000,-10.791418
4773000000,-9.1216459
4782000000,-9.5760727
4791000000,-8.9154768
4800000000,-7.4211955
4809000000,-8.591588
4818000000,-7.1590657
4827000000,-7.5350819
4836000000,-8.3729687
4845000000,-7.333951
4854000000,-7.7514133
4863000000,-7.0208216
4872000000,-7.148531
4881000000,-7.1718311
4890000000,-6.6234379
4899000000,-6.7341228
4908000000,-6.7695608
4917000000,-6.208745
4926000000,-5.945334
4935000000,-6.42939
4944000000,-6.4455204
4953000000,-6.9054508
4962000000,-6.3168335
4971000000,-6.4105158
4980000000,-7.232801
4989000000,-5.664165
4998000000,-6.7735734
5007000000,-6.9960709
5016000000,-5.4527874
5025000000,-7.664185
5034000000,-6.6443238
5043000000,-5.8167791
5052000000,-8.5362949
5061000000,-7.2963519
5070000000,-7.2818046
5079000000,-9.5941896
5088000000,-7.6189175
5097000000,-8.3880539
5106000000,-9.8084679
5115000000,-7.7405906
5124000000,-9.5035639
5133000000,-9.8268747
5142000000,-8.8481236
5151000000,-9.7588215
5160000000,-8.9692049
5169000000,-8.3674917
5178000000,-7.8975005
5187000000,-6.5867915
5196000000,-5.8345881
5205000000,-4.6965823
5214000000,-4.3024974
5223000000,-5.0816188
5232000000,-4.2509103
5241000000,-5.1920743
5250000000,-5.7877545
5259000000,-5.4954066
5268000000,-6.6076856
5277000000,-7.4529057
5286000000,-6.7832236
5295000000,-7.2884607
5304000000,-6.2142062
5313000000,-5.3536716
5322000000,-6.0222154
5331000000,-5.2054353
5340000000,-5.1130452
5349000000,-5.2150135
5358000000,-4.7855086
5367000000,-4.4547029
5376000000,-4.4146647
5385000000,-4.423058
5394000000,-4.4222507
5403000000,-4.5945086
5412000000,-4.7971296
5421000000,-5.1170573
5430000000,-6.2074242
5439000000,-7.1463127
5448000000,-6.7018704
5457000000,-8.020793
5466000000,-7.9546142
5475000000,-8.0488739
5484000000,-7.9938622
5493000000,-7.328815
5502000000,-6.4221597
5511000000,-5.3620396
5520000000,-5.2388716
5529000000,-4.3416963
5538000000,-4.1852279
5547000000,-3.9124579
5556000000,-3.6355233
5565000000,-4.0019798
5574000000,-3.8702271
5583000000,-3.7012298
5592000000,-4.386076
5601000000,-4.1977415
5610000000,-5.0887818
5619000000,-5.7751894
5628000000,-5.6370034
5637000000,-6.4732561
5646000000,-6.4188495
5655000000,-6.3453712
5664000000,-6.7159023
5673000000,-6.9111519
5682000000,-7.0489602
5691000000,-6.7088575
5700000000,-6.1176248
5709000000,-5.3028979
5718000000,-4.921104
5727000000,-4.5868163
5736000000,-4.8035436
5745000000,-4.6242375
5754000000,-4.7900681
5763000000,-5.2284393
5772000000,-4.7899823
5781000000,-5.0987034
5790000000,-5.1780143
5799000000,-5.266335
5808000000,-5.6747584
5817000000,-5.7863646
5826000000,-5.475141
5835000000,-6.0096903
5844000000,-4.6161842
5853000000,-5.1744733
5862000000,-5.3604364
5871000000,-4.0000267
5880000000,-4.7881827
5889000000,-4.615129
5898000000,-3.7930641
5907000000,-5.3121428
5916000000,-4.7552905
5925000000,-4.3788805
5934000000,-5.3818893
5943000000,-4.8148603
5952000000,-5.2548852
5961000000,-6.1669593
5970000000,-5.9236588
5979000000,-6.3665924
5988000000,-6.2872033
5997000000,-6.3694205
6006000000,-6.5407729
6015000000,-5.9081531
6024000000,-5.8950286
6033000000,-5.2463894
6042000000,-5.5918012
6051000000,-4.7487636
6060000000,-3.8665736
6069000000,-4.3413
6078000000,-4.0202198
6087000000,-3.1258891
6096000000,-4.6675377
6105000000,-2.9188316
6114000000,-2.7915065
6123000000,-3.9572523
6132000000,-2.8588405
6141000000,-3.3247373
6150000000,-4.1209793
6159000000,-3.6742315
6168000000,-3.461247
6177000000,-4.8136024
6186000000,-4.0530596
6195000000,-4.7192988
6204000000,-5.6684561
6213000000,-5.662415
6222000000,-6.1764979
6231000000,-5.5077066
6240000000,-5.9758234
6249000000,-5.5369391
6258000000,-6.0576339
6267000000,-6.7610469
6276000000,-5.9743094
6285000000,-7.0175281
6294000000,-6.4256845
6303000000,-5.5468554
6312000000,-5.7041183
6321000000,-5.6179252
6330000000,-4.792088
6339000000,-6.1896729
6348000000,-5.4649572
6357000000,-5.1677146
6366000000,-6.4552817
6375000000,-5.1555438
6384000000,-4.7573881
6393000000,-5.4514589
6402000000,-4.3824196
6411000000,-4.5430403
6420000000,-5.2012663
6429000000,-3.8955264
6438000000,-4.5595446
6447000000,-4.1808796
6456000000,-3.4560809
6465000000,-4.3721685
6474000000,-3.9614842
6483000000,-4.0653553
6492000000,-3.7706015
6501000000,-3.8970888
6510000000,-3.2423384
6519000000,-3.5736964
6528000000,-3.2594314
6537000000,-3.6284008
6546000000,-4.0035138
6555000000,-4.3208871
6564000000,-4.5761232
6573000000,-4.8571868
6582000000,-5.0292521
6591000000,-5.1622548
6600000000,-5.8616385
6609000000,-6.1582155
6618000000,-5.65097
6627000000,-5.3174658
6636000000,-5.7160082
6645000000,-4.3718905
6654000000,-4.1917701
6663000000,-4.026103
6672000000,-3.5924475
6681000000,-3.4420803
6690000000,-3.2689533
6699000000,-2.7957668
6708000000,-3.2701256
6717000000,-3.586427
6726000000,-2.3876102
6735000000,-2.8063734
6744000000,-2.6139085
6753000000,-1.64589
6762000000,-2.7655101
6771000000,-2.5521472
6780000000,-2.2855504
6789000000,-2.9808004
6798000000,-2.1938162
6807000000,-2.348999
6816000000,-3.1827502
6825000000,-2.4708242
6834000000,-3.1131742
6843000000,-2.3133459
6852000000,-2.1981592
6861000000,-2.0256536
6870000000,-1.6653008
6879000000,-2.0190613
6888000000,-1.8744786
6897000000,-1.9431028
6906000000,-2.5240843
6915000000,-1.7701659
6924000000,-2.6112127
6933000000,-2.9672341
6942000000,-2.1313519
6951000000,-3.3082139
6960000000,-3.0110726
6969000000,-2.5810235
6978000000,-3.9233615
6987000000,-3.0540435
6996000000,-2.6484506
7005000000,-2.8614316
7014000000,-2.2187388
7023000000,-2.4404109
7032000000,-1.9979122
7041000000,-1.6710649
7050000000,-1.8623395
7059000000,-0.96343207
7068000000,-0.88483179
7077000000,-0.38832361
7086000000,0.33216956
7095000000,-0.22527769
7104000000,0.5072059
7113000000,0.92829823
7122000000,-0.13056579
7131000000,0.22592881
7140000000,-0.21044783
7149000000,-0.84220117
7158000000,-0.40412948
7167000000,-0.78601593
7176000000,-1.0370722
7185000000,-0.14283113
7194000000,-0.87392026
7203000000,-0.57929879
7212000000,-0.51902908
7221000000,-0.531075
7230000000,-0.55166513
7239000000,0.52976412
7248000000,-0.21885309
7257000000,-0.043848235
7266000000,-0.77962041
7275000000,-0.39979106
7284000000,-0.39614099
7293000000,-1.2975824
7302000000,-0.43983316
7311000000,-0.799101
7320000000,-0.9043439
7329000000,-0.56456411
7338000000,-0.60793489
7347000000,-0.73089886
7356000000,-0.63190955
7365000000,-1.6264181
7374000000,-0.4449755
7383000000,-1.093809
7392000000,-1.2320364
7401000000,-0.51154268
7410000000,-0.38214839
7419000000,-0.97047478
7428000000,-0.37394828
7437000000,-0.59760696
7446000000,-0.82747471
7455000000,-0.92130393
7464000000,-1.5698192
7473000000,-0.63672084
7482000000,-1.1068635
7491000000,-0.45626861
7500000000,-0.6318391
7509000000,-1.2182199
7518000000,-0.4029417
7527000000,-0.54206675
7536000000,-1.0549872
7545000000,-0.25423861
7554000000,-0.83902186
7563000000,-0.3081775
7572000000,-0.24978559
7581000000,-0.53509837
7590000000,0.21858734
7599000000,0.26438802
7608000000,0.26779142
7617000000,-0.22067071
7626000000,-0.27084747
7635000000,-0.029166831
7644000000,-0.084583133
7653000000,0.050238762
7662000000,-0.31426832
7671000000,0.047294661
7680000000,-0.16499504
7689000000,-0.35225701
7698000000,-0.29985908
7707000000,-0.4384734
7716000000,-0.15820852
7725000000,-0.11219713
7734000000,0.46226904
7743000000,0.66634411
7752000000,0.089253895
7761000000,0.6068207
7770000000,0.037633304
7779000000,0.032167949
7788000000,0.15524621
7797000000,-0.06404949
7806000000,0.43486354
7815000000,-0.03023291
7824000000,-0.7495259
7833000000,0.039341051
7842000000,-0.70536941
7851000000,0.055979554
7860000000,-0.075722091
7869000000,-0.57001519
7878000000,-0.11027697
7887000000,0.13689044
7896000000,-0.0025976507
7905000000,0.64439136
7914000000,0.0022281867
7923000000,0.35019752
7932000000,0.54841185
7941000000,-0.082026467
7950000000,0.84840059
7959000000,0.6947571
7968000000,0.97846001
7977000000,0.97088051
7986000000,1.1833403
7995000000,1.268802
8004000000,0.74339259
8013000000,0.38573027
8022000000,0.86602128
8031000000,0.074928552
8040000000,0.53565609
8049000000,0.92109239
8058000000,0.46503228
8067000000,1.1003287
8076000000,0.099656582
8085000000,0.21137263
8094000000,0.56331253
8103000000,-0.12333629
8112000000,0.31804961
8121000000,0.679447
8130000000,0.41435328
8139000000,0.64199555
8148000000,0.29588735
8157000000,0.75607145
8166000000,0.78959066
8175000000,0.24598613
8184000000,0.95863336
8193000000,1.1792568
8202000000,0.93492746
8211000000,1.4708625
8220000000,1.2832615
8229000000,0.43871969
8238000000,1.1361192
8247000000,0.28839147
8256000000,0.61590624
8265000000,1.1699688
8274000000,0.72062898
8283000000,0.98517936
8292000000,0.47930163
8301000000,0.53136712
8310000000,0.56169242
8319000000,0.73917472
8328000000,1.0356398
8337000000,0.63695323
8346000000,0.74092239
8355000000,0.72704929
8364000000,0.48130041
8373000000,1.2258511
8382000000,0.53119218
8391000000,0.71327859
8400000000,0.92059624
8409000000,0.59742099
8418000000,0.79102916
8427000000,1.2831906
8436000000,0.52472168
8445000000,0.3884224
8454000000,0.88249749
8463000000,1.0955645
8472000000,0.42879897
8481000000,1.1270893
8490000000,1.1529962
8499000000,1.1148906
8508000000,1.440388
8517000000,1.0844423
8526000000,1.3811358
8535000000,1.2517017
8544000000,1.1148996
8553000000,1.4199765
8562000000,1.3375089
8571000000,1.4419079
8580000000,1.9197509
8589000000,1.3684882
8598000000,2.3633378
8607000000,2.2089186
8616000000,1.8398079
8625000000,1.7506741
8634000000,1.6711481
8643000000,1.6713058
8652000000,2.3300059
8661000000,2.2527111
8670000000,2.5334961
8679000000,2.6518314
8688000000,2.3671229
8697000000,2.7479196
8706000000,1.781921
8715000000,2.3855169
8724000000,2.5726986
8733000000,2.6667144
8742000000,2.8859923
8751000000,3.0498672
8760000000,2.6046894
8769000000,3.4507921
8778000000,3.023741
8787000000,2.4639478
8796000000,2.6092405
8805000000,1.9427376
8814000000,2.6863761
8823000000,2.5289197
8832000000,2.9276989
8841000000,3.6921625
8850000000,2.6374545
8859000000,2.570915
8868000000,3.0524371
8877000000,2.787535
8886000000,3.5182495
8895000000,3.4414363
8904000000,3.4334335
8913000000,4.0999069
8922000000,4.2449613
8931000000,4.2833614
8940000000,4.4182382
8949000000,4.6139064
8958000000,3.9322894
8967000000,4.1958609
8976000000,3.7436166
8985000000,4.505887
8994000000,4.109446
9003000000,4.0667973
9012000000,4.6351023
9021000000,3.8272643
9030000000,4.3119283
9039000000,4.1518407
9048000000,3.8240485
9057000000,4.1246581
9066000000,4.1715479
9075000000,4.3734617
9084000000,4.1606092
9093000000,3.742815
9102000000,4.2328858
9111000000,4.4993544
9120000000,4.0742731
9129000000,4.6794124
9138000000,4.6504202
9147000000,4.6716676
9156000000,5.2258844
9165000000,4.7246256
9174000000,4.4690499
9183000000,4.784061
9192000000,4.9793377
9201000000,5.1619453
9210000000,5.6224599
9219000000,4.9270535
9228000000,4.770381
9237000000,4.1593552
9246000000,4.2533765
9255000000,4.7363968
9264000000,4.4000387
9273000000,4.9538102
9282000000,4.7444987
9291000000,4.4589534
9300000000,4.6553087
9309000000,5.0303226
9318000000,5.0852256
9327000000,5.0555587
9336000000,5.2845378
9345000000,5.3162627
9354000000,5.4842625
9363000000,5.1340165
9372000000,4.9982252
9381000000,5.2728257
9390000000,5.2573423
9399000000,5.6163688
9408000000,5.7557354
9417000000,5.5115962
9426000000,5.744205
9435000000,5.7740097
9444000000,5.1998343
9453000000,5.3739419
9462000000,5.213748
9471000000,5.7770991
9480000000,5.0310445
9489000000,5.8361316
9498000000,5.719552
9507000000,5.7022128
9516000000,5.7227674
9525000000,5.7009234
9534000000,6.0135159
9543000000,5.9522901
9552000000,5.4464769
9561000000,5.1662393
9570000000,6.1694312
9579000000,5.7339401
9588000000,5.6246567
9597000000,5.8271675
9606000000,5.6515651
9615000000,6.1501017
9624000000,6.0994701
9633000000,5.505692
9642000000,6.3227768
9651000000,5.4001651
9660000000,5.631062
9669000000,5.6707506
9678000000,6.0211859
9687000000,5.5370116
9696000000,5.3195958
9705000000,5.3084984
9714000000,5.5515275
9723000000,5.841392
9732000000,5.7852001
9741000000,5.8426399
9750000000,5.9602499
9759000000,6.4467955
9768000000,6.2298155
9777000000,5.5332079
9786000000,6.121376
9795000000,6.3906379
9804000000,6.2907138
9813000000,6.4657903
9822000000,5.4689832
9831000000,6.4389911
9840000000,5.9370575
9849000000,5.7780728
9858000000,6.355155
9867000000,6.5286527
9876000000,6.6503749
9885000000,6.4052753
9894000000,6.3113413
9903000000,6.616169
9912000000,6.5745168
9921000000,6.2870369
9930000000,6.07973
9939000000,6.0258884
9948000000,5.9274755
9957000000,6.4020405
9966000000,5.6631994
9975000000,6.6419435
9984000000,6.4712353
9993000000,5.7635379
10002000000,6.6456003
10011000000,6.0927663
10020000000,5.7482071
10029000000,6.1387014
10038000000,5.8453259
10047000000,6.5136824
10056000000,6.84484
10065000000,6.5036635
10074000000,6.2157464
10083000000,6.8280926
10092000000,6.8594007
10101000000,7.1519122
10110000000,6.8023157
10119000000,6.9182401
10128000000,7.2447906
10137000000,6.6252112
10146000000,6.4604297
10155000000,6.909936
10164000000,6.8584452
10173000000,6.4948926
10182000000,6.4330492
10191000000,6.5046902
10200000000,6.3290758
10209000000,6.7333202
10218000000,6.6833959
10227000000,6.4981451
10236000000,6.3788695
10245000000,6.9849548
10254000000,6.2454481
10263000000,6.1401739
10272000000,6.4461575
10281000000,6.7649174
10290000000,6.8607526
10299000000,6.4852638
10308000000,6.4528084
10317000000,7.2773509
10326000000,6.3070297
10335000000,7.0297432
10344000000,7.0212145
10353000000,6.7591496
10362000000,6.943397
10371000000,6.4694905
10380000000,6.7251449
10389000000,6.4962187
10398000000,6.6666789
10407000000,6.2156663
10416000000,7.059896
10425000000,6.4439888
10434000000,6.8696666
10443000000,7.2586832
10452000000,6.7736754
10461000000,6.492393
10470000000,6.6748176
10479000000,6.7352991
10488000000,6.9690819
10497000000,7.4316497
10506000000,6.4239688
10515000000,7.4580989
10524000000,7.8791561
10533000000,6.9911079
10542000000,7.3404951
10551000000,7.3307352
10560000000,7.3630714
10569000000,6.9858871
10578000000,7.8360553
10587000000,7.7354898
10596000000,7.4274788
10605000000,7.1471033
10614000000,7.6915617
10623000000,7.5052047
10632000000,6.8829794
10641000000,7.1482859
10650000000,6.8835931
10659000000,7.3192916
10668000000,7.4287839
10677000000,6.7525821
10686000000,6.7155876
10695000000,6.8886118
10704000000,7.4760871
10713000000,6.8143797
10722000000,6.9905658
10731000000,7.0403342
10740000000,7.2213349
10749000000,6.6237144
10758000000,7.223805
10767000000,7.0379562
10776000000,7.7751317
10785000000,7.250608
10794000000,6.971765
10803000000,7.8011403
10812000000,6.9040594
10821000000,6.4272361
10830000000,6.5550985
10839000000,6.7178941
10848000000,6.7420526
10857000000,6.3368788
10866000000,6.9492574
10875000000,7.0848455
10884000000,7.1255617
10893000000,6.2293396
10902000000,6.6031213
10911000000,6.3904014
10920000000,7.5048995
10929000000,7.2228751
10938000000,6.6305194
10947000000,7.4680719
10956000000,6.9451804
10965000000,7.3821845
10974000000,7.046659
10983000000,7.0248423
10992000000,7.2978106
11001000000,6.6851301
11010000000,6.4848871
11019000000,6.5739527
11028000000,6.6180553
11037000000,7.111124
11046000000,6.6328149
11055000000,6.0644794
11064000000,6.3201241
11073000000,5.9484725
11082000000,6.0255346
11091000000,6.8952432
11100000000,6.7588725
11109000000,6.785717
11118000000,6.5683527
11127000000,6.6072531
11136000000,7.3012972
11145000000,6.176887
11154000000,6.8132772
11163000000,6.8301988
11172000000,6.3191652
11181000000,6.1895556
11190000000,6.4641232
11199000000,6.4278846
11208000000,6.8073611
11217000000,6.2891316
11226000000,6.7826672
11235000000,7.3978128
11244000000,6.2360859
11253000000,6.8800774
11262000000,6.7626667
11271000000,5.7886019
11280000000,7.1440458
11289000000,6.4726501
11298000000,6.2110481
11307000000,6.4749737
11316000000,6.5930691
11325000000,6.7350368
11334000000,6.2657928
11343000000,6.3903661
11352000000,6.4233236
11361000000,5.4540038
11370000000,5.9535985
11379000000,6.0668855
11388000000,6.2159309
11397000000,6.6592622
11406000000,5.8489428
11415000000,6.8588662
11424000000,5.6782503
11433000000,5.9234524
11442000000,6.9748607
11451000000,5.4584594
11460000000,6.9283104
11469000000,6.8139286
11478000000,6.3625407
11487000000,6.4012184
11496000000,6.1015029
11505000000,5.0973983
11514000000,5.1950612
11523000000,6.1979623
11532000000,5.4661198
11541000000,5.9503541
11550000000,6.0224371
11559000000,5.9607458
11568000000,5.5268722
11577000000,5.6953106
11586000000,5.7996092
11595000000,6.6176276
11604000000,5.4550653
11613000000,5.305645
11622000000,5.7095771
11631000000,6.494833
11640000000,6.1276641
11649000000,5.4605708
11658000000,5.240242
11667000000,5.2229896
11676000000,5.4402928
11685000000,5.2612185
11694000000,5.1773796
11703000000,6.1152577
11712000000,5.5696735
11721000000,5.7640429
11730000000,6.2571373
11739000000,6.2743735
11748000000,6.5127945
11757000000,5.8238211
11766000000,6.0046024
11775000000,5.8411427
11784000000,6.3537598
11793000000,5.8915396
11802000000,6.1058626
11811000000,6.0930095
11820000000,6.009203
11829000000,4.8737669
11838000000,5.8282247
11847000000,5.8286419
11856000000,5.7978086
11865000000,6.1074214
11874000000,5.0280437
11883000000,5.3456054
11892000000,5.5967169
11901000000,5.869205
11910000000,5.3830614
11919000000,5.5459423
11928000000,5.7962909
11937000000,5.6470299
11946000000,6.0493712
11955000000,5.3484702
11964000000,5.8611455
11973000000,6.5242233
11982000000,6.4357915
11991000000,5.7707973
12000000000,6.7511716
END

