!CSV A.01.01
!Keysight Technologies,N5222B,MY57181453,A.13.95.07
!Date: Monday, August 14, 2023 02:34:46
!Source: Standard

BEGIN CH1_DATA
Freq(Hz),S21 Log Mag(dB)
3000000000,-12.524011
3009000000,-10.861861
3018000000,-8.734705
3027000000,-8.8163929
3036000000,-9.9699116
3045000000,-8.0387926
3054000000,-9.2988272
3063000000,-11.582812
3072000000,-9.6158028
3081000000,-11.402173
3090000000,-12.763086
3099000000,-9.4791698
3108000000,-11.227114
3117000000,-8.2491961
3126000000,-5.4122853
3135000000,-6.4685459
3144000000,-5.3362079
3153000000,-3.9028261
3162000000,-5.6576486
3171000000,-5.0496945
3180000000,-4.0910821
3189000000,-6.2175183
3198000000,-6.3875203
3207000000,-5.5476656
3216000000,-8.4992895
3225000000,-9.5202999
3234000000,-7.3354988
3243000000,-10.452839
3252000000,-10.011123
3261000000,-6.7428708
3270000000,-8.2436409
3279000000,-7.2129221
3288000000,-5.4776988
3297000000,-7.1573515
3306000000,-8.0949936
3315000000,-5.9609056
3324000000,-8.6971264
3333000000,-7.2440028
3342000000,-6.3413491
3351000000,-8.3878326
3360000000,-6.8360968
3369000000,-7.0972233
3378000000,-8.1385231
3387000000,-7.7506895
3396000000,-6.9362621
3405000000,-7.5149083
3414000000,-7.264812
3423000000,-6.162919
3432000000,-7.6162958
3441000000,-7.0688839
3450000000,-6.2900043
3459000000,-7.995924
3468000000,-6.3942156
3477000000,-5.6431966
3486000000,-6.3607473
3495000000,-5.168458
3504000000,-4.8278575
3513000000,-5.5566292
3522000000,-4.2691135
3531000000,-3.9306452
3540000000,-4.2977509
3549000000,-3.5947545
3558000000,-3.6249864
3567000000,-3.6189203
3576000000,-2.6634808
3585000000,-2.3335829
3594000000,-2.3279552
3603000000,-1.846993
3612000000,-1.7020671
3621000000,-1.6640418
3630000000,-1.0713923
3639000000,-0.67853838
3648000000,-0.8624388
3657000000,-0.26487747
3666000000,0.17598227
3675000000,0.12672189
3684000000,0.63159341
3693000000,0.55301327
3702000000,0.59050661
3711000000,0.96727133
3720000000,0.58510268
3729000000,0.46931449
3738000000,0.32848135
3747000000,0.42691001
3756000000,0.02243297
3765000000,0.45613843
3774000000,0.85385966
3783000000,0.84276831
3792000000,1.5197877
3801000000,1.3952905
3810000000,1.5121162
3819000000,2.0040691
3828000000,2.1059341
3837000000,2.2853165
3846000000,2.8403945
3855000000,2.7317879
3864000000,3.2515836
3873000000,3.8135862
3882000000,3.6592653
3891000000,3.894834
3900000000,4.0726314
3909000000,3.9607506
3918000000,3.895859
3927000000,4.1376534
3936000000,3.6194189
3945000000,3.6877875
3954000000,3.6197586
3963000000,3.1267695
3972000000,3.4698272
3981000000,3.081583
3990000000,3.0573909
3999000000,3.2247579
4008000000,3.3096063
4017000000,3.7616251
4026000000,3.7221298
4035000000,4.1738796
4044000000,4.2804174
4053000000,4.1367521
4062000000,4.3620849
4071000000,4.5330863
4080000000,4.4826355
4089000000,4.7619271
4098000000,4.8968077
4107000000,4.6559529
4116000000,4.87117
4125000000,4.8435869
4134000000,4.5844717
4143000000,4.759234
4152000000,4.3100719
4161000000,4.4842072
4170000000,4.6517453
4179000000,4.4151006
4188000000,4.5184932
4197000000,4.4220023
4206000000,4.5008187
4215000000,4.6964045
4224000000,4.8078456
4233000000,5.0960612
4242000000,5.0213308
4251000000,5.363266
4260000000,5.4405146
4269000000,5.2255297
4278000000,5.7506762
4287000000,6.0604105
4296000000,5.9098763
4305000000,6.7552047
4314000000,6.6929708
4323000000,6.5449729
4332000000,7.0299926
4341000000,6.9071689
4350000000,6.8334579
4359000000,7.1641293
4368000000,6.6165628
4377000000,6.7747297
4386000000,6.9773636
4395000000,6.5295467
4404000000,6.7969985
4413000000,6.7410245
4422000000,6.7092018
4431000000,7.034668
4440000000,7.0434442
4449000000,7.0024877
4458000000,6.9591675
4467000000,7.111979
4476000000,6.945353
4485000000,7.0020356
4494000000,7.2072439
4503000000,7.2193375
4512000000,7.2936726
4521000000,7.5325799
4530000000,7.5787024
4539000000,7.6349258
4548000000,7.8648338
4557000000,7.9640527
4566000000,7.8987985
4575000000,7.8146496
4584000000,8.0865793
4593000000,7.9323196
4602000000,8.131875
4611000000,8.2749033
4620000000,8.0158625
4629000000,8.3553562
4638000000,8.1356564
4647000000,7.8875532
4656000000,8.176199
4665000000,8.056572
4674000000,8.1138382
4683000000,8.3155432
4692000000,8.3474321
4701000000,8.3103571
4710000000,8.4279461
4719000000,8.1882553
4728000000,8.2892551
4737000000,8.23878
4746000000,8.2026443
4755000000,8.275034
4764000000,8.0277052
4773000000,8.0686703
4782000000,7.8337913
4791000000,7.7701073
4800000000,7.8052735
4809000000,7.5441265
4818000000,8.0086021
4827000000,8.0018587
4836000000,8.0115805
4845000000,8.4228468
4854000000,8.6267576
4863000000,8.7438641
4872000000,8.7658863
4881000000,8.8032417
4890000000,8.8251276
4899000000,9.2783051
4908000000,8.9780922
4917000000,9.0362368
4926000000,9.1454697
4935000000,8.9652033
4944000000,8.9991026
4953000000,8.7727213
4962000000,8.6819067
4971000000,8.7233734
4980000000,8.3489971
4989000000,8.6487656
4998000000,8.6237202
5007000000,8.5514507
5016000000,8.8492012
5025000000,8.5800848
5034000000,8.854413
5043000000,9.1671295
5052000000,9.1536789
5061000000,9.3280497
5070000000,9.6459951
5079000000,9.5240202
5088000000,9.7844334
5097000000,9.99578
5106000000,9.7658701
5115000000,10.046897
5124000000,10.195141
5133000000,10.10112
5142000000,10.022999
5151000000,10.063011
5160000000,10.172688
5169000000,10.07959
5178000000,10.160886
5187000000,10.446213
5196000000,10.352957
5205000000,10.350002
5214000000,10.417356
5223000000,9.9852648
5232000000,9.9918957
5241000000,10.046187
5250000000,9.6362123
5259000000,9.7523823
5268000000,9.6493244
5277000000,9.2235136
5286000000,9.5889082
5295000000,9.260396
5304000000,8.9902925
5313000000,9.0477781
5322000000,8.8458576
5331000000,8.7374983
5340000000,8.879879
5349000000,8.7880602
5358000000,8.7495708
5367000000,8.8534155
5376000000,8.6526403
5385000000,8.921916
5394000000,8.6746588
5403000000,9.0729809
5412000000,9.0171032
5421000000,8.9568825
5430000000,9.1430054
5439000000,8.9785118
5448000000,9.0373163
5457000000,9.0479259
5466000000,8.9830008
5475000000,9.1949205
5484000000,9.2680311
5493000000,9.3193913
5502000000,9.3592272
5511000000,9.4977741
5520000000,9.3240261
5529000000,9.4848299
5538000000,9.5633888
5547000000,9.8286581
5556000000,9.9567871
5565000000,9.9621754
5574000000,10.142733
5583000000,10.041937
5592000000,9.982563
5601000000,10.06146
5610000000,9.7512512
5619000000,9.76863
5628000000,9.6948996
5637000000,9.495719
5646000000,9.68332
5655000000,9.4767771
5664000000,9.4074793
5673000000,9.252821
5682000000,9.2413225
5691000000,9.3701792
5700000000,9.3048
5709000000,9.1226797
5718000000,9.09023
5727000000,9.0361996
5736000000,9.1779089
5745000000,9.0224648
5754000000,9.2241592
5763000000,9.2722254
5772000000,9.2072401
5781000000,9.3858175
5790000000,9.2337961
5799000000,9.0187302
5808000000,9.2044163
5817000000,8.9636869
5826000000,8.9207468
5835000000,9.1066761
5844000000,8.8556499
5853000000,8.7849283
5862000000,8.8565359
5871000000,8.7242651
5880000000,8.8817501
5889000000,9.1226091
5898000000,8.9328375
5907000000,8.9185247
5916000000,9.0564098
5925000000,8.8744268
5934000000,8.8699121
5943000000,9.0064011
5952000000,8.9371061
5961000000,8.9229622
5970000000,8.7169714
5979000000,8.8337049
5988000000,8.8527164
5997000000,8.8673754
6006000000,8.7872267
6015000000,8.9881964
6024000000,9.1015902
6033000000,8.9428482
6042000000,9.0586252
6051000000,9.1856155
6060000000,8.8356466
6069000000,9.1273432
6078000000,9.1157827
6087000000,8.6540833
6096000000,8.8861837
6105000000,8.986187
6114000000,8.5867033
6123000000,8.5037718
6132000000,8.4781656
6141000000,7.9494143
6150000000,8.0164909
6159000000,8.1289711
6168000000,7.9484849
6177000000,7.9542351
6186000000,7.7948761
6195000000,7.8367405
6204000000,8.172472
6213000000,8.2099781
6222000000,8.1994944
6231000000,8.3705482
6240000000,8.2985353
6249000000,8.4426737
6258000000,8.4911098
6267000000,8.4028902
6276000000,8.5442152
6285000000,8.4610739
6294000000,8.4296885
6303000000,8.4843616
6312000000,8.6060915
6321000000,8.5670776
6330000000,8.0311546
6339000000,8.3851957
6348000000,8.1853046
6357000000,7.7070575
6366000000,8.0640631
6375000000,7.8368063
6384000000,7.7770886
6393000000,8.0212574
6402000000,7.7452579
6411000000,7.8335052
6420000000,8.1749487
6429000000,8.363637
6438000000,8.2470999
6447000000,8.084569
6456000000,8.2970495
6465000000,8.0755568
6474000000,8.3266211
6483000000,8.1053753
6492000000,7.9940329
6501000000,7.9870825
6510000000,7.6724787
6519000000,7.2993479
6528000000,7.4950185
6537000000,7.1982493
6546000000,7.1415339
6555000000,7.0084152
6564000000,6.6448865
6573000000,6.8694034
6582000000,6.8452826
6591000000,6.7492952
6600000000,6.8828406
6609000000,7.0326471
6618000000,6.970892
6627000000,7.3479939
6636000000,7.5126891
6645000000,7.5443149
6654000000,7.612154
6663000000,7.7128081
6672000000,7.6009641
6681000000,7.5985112
6690000000,7.6856136
6699000000,7.5141597
6708000000,7.4429474
6717000000,7.5953851
6726000000,7.2651758
6735000000,7.5068412
6744000000,7.6009755
6753000000,7.035152
6762000000,7.5516696
6771000000,7.252811
6780000000,6.8952661
6789000000,7.4685001
6798000000,7.4126401
6807000000,7.2520709
6816000000,7.6404524
6825000000,7.3210325
6834000000,7.5314345
6843000000,7.5038261
6852000000,7.4090347
6861000000,7.4324584
6870000000,7.4494729
6879000000,7.0373688
6888000000,6.8233509
6897000000,6.5217419
6906000000,6.5383954
6915000000,6.431879
6924000000,6.2923136
6933000000,6.3129115
6942000000,6.0748472
6951000000,6.2976379
6960000000,6.4507289
6969000000,6.4516268
6978000000,6.6102576
6987000000,6.9792566
6996000000,7.3140612
7005000000,7.6696191
7014000000,7.7411103
7023000000,7.9929781
7032000000,8.0938807
7041000000,7.8044567
7050000000,7.7578011
7059000000,7.999146
7068000000,7.5688396
7077000000,7.8121805
7086000000,7.8759828
7095000000,7.0857139
7104000000,7.5551548
7113000000,7.3494411
7122000000,7.0251627
7131000000,7.099483
7140000000,7.1925721
7149000000,7.5824151
7158000000,7.6473784
7167000000,7.9104953
7176000000,8.0281191
7185000000,8.4815598
7194000000,8.436945
7203000000,8.5026894
7212000000,8.6490173
7221000000,8.4808683
7230000000,8.0117731
7239000000,8.1420631
7248000000,8.1795864
7257000000,7.2952437
7266000000,6.8668127
7275000000,7.3358164
7284000000,6.8322544
7293000000,6.3910856
7302000000,6.6591244
7311000000,6.0168519
7320000000,6.7140994
7329000000,6.5703583
7338000000,6.354723
7347000000,6.4997892
7356000000,6.5161815
7365000000,6.4387417
7374000000,7.2879725
7383000000,6.7416787
7392000000,7.0047069
7401000000,7.0244923
7410000000,6.9254537
7419000000,6.977067
7428000000,6.870245
7437000000,7.3262506
7446000000,7.2053289
7455000000,6.91117
7464000000,6.6815767
7473000000,6.7928858
7482000000,6.5022001
7491000000,6.6703629
7500000000,6.8819227
7509000000,6.7748804
7518000000,7.1910372
7527000000,6.9909053
7536000000,7.0412407
7545000000,7.4143105
7554000000,6.763731
7563000000,7.0110025
7572000000,6.9682307
7581000000,7.1305995
7590000000,7.4890594
7599000000,7.4264441
7608000000,7.5340624
7617000000,7.0335736
7626000000,6.9619684
7635000000,6.8957205
7644000000,6.8210754
7653000000,7.1924572
7662000000,7.0152655
7671000000,6.8991451
7680000000,7.1188574
7689000000,6.9266753
7698000000,6.8884869
7707000000,6.9291487
7716000000,6.6146383
7725000000,6.7709956
7734000000,6.7726145
7743000000,7.1053238
7752000000,6.7700334
7761000000,6.6534681
7770000000,6.6624856
7779000000,6.7222042
7788000000,6.4674711
7797000000,6.3589153
7806000000,6.4582815
7815000000,6.0271444
7824000000,5.9422622
7833000000,6.4172974
7842000000,5.6737876
7851000000,6.4618239
7860000000,6.080409
7869000000,6.0653672
7878000000,5.7519708
7887000000,5.8017054
7896000000,5.7974687
7905000000,6.0617495
7914000000,5.8213816
7923000000,5.8691339
7932000000,6.303627
7941000000,5.4504099
7950000000,5.7522392
7959000000,5.7072039
7968000000,5.4342852
7977000000,5.3498139
7986000000,5.7418981
7995000000,5.7228241
8004000000,5.0061812
8013000000,5.4728351
8022000000,5.6245828
8031000000,5.0884566
8040000000,5.3766279
8049000000,5.5724225
8058000000,5.2538385
8067000000,5.708281
8076000000,4.8161597
8085000000,4.983799
8094000000,5.3543801
8103000000,5.0553532
8112000000,4.7115297
8121000000,5.0592866
8130000000,4.1018524
8139000000,4.4447398
8148000000,4.2825937
8157000000,4.4620695
8166000000,4.789957
8175000000,4.2923293
8184000000,4.4917474
8193000000,4.7768159
8202000000,4.4015951
8211000000,5.1611109
8220000000,4.9838929
8229000000,4.7272792
8238000000,5.3410015
8247000000,4.7053428
8256000000,5.1643057
8265000000,5.4222388
8274000000,4.4719691
8283000000,4.9626594
8292000000,4.5302782
8301000000,4.3530154
8310000000,4.5870786
8319000000,4.6806278
8328000000,4.5669432
8337000000,4.813272
8346000000,4.5917478
8355000000,4.585052
8364000000,4.4971366
8373000000,4.5758595
8382000000,4.30966
8391000000,4.5020003
8400000000,4.3895822
8409000000,4.3858175
8418000000,4.2352772
8427000000,4.4418845
8436000000,4.1520553
8445000000,3.6053634
8454000000,4.6906977
8463000000,4.1904635
8472000000,3.9556284
8481000000,4.7948256
8490000000,4.3962841
8499000000,4.4029012
8508000000,4.9713149
8517000000,3.9451191
8526000000,4.4569998
8535000000,4.2024875
8544000000,3.6852708
8553000000,4.2595181
8562000000,3.7390857
8571000000,3.3747027
8580000000,3.7808857
8589000000,2.8645773
8598000000,3.7671876
8607000000,3.6602864
8616000000,3.3260047
8625000000,3.5722067
8634000000,3.8752866
8643000000,3.8475275
8652000000,4.3525076
8661000000,3.8217661
8670000000,4.4189367
8679000000,4.7927537
8688000000,3.8141742
8697000000,4.7090421
8706000000,3.7999105
8715000000,4.1384096
8724000000,4.3633695
8733000000,3.8072369
8742000000,3.8396246
8751000000,3.9269836
8760000000,2.964607
8769000000,3.4231942
8778000000,3.2680099
8787000000,2.6850019
8796000000,3.5251184
8805000000,2.4797499
8814000000,3.0017977
8823000000,3.4250996
8832000000,3.2137308
8841000000,4.1991582
8850000000,3.5244758
8859000000,3.4013245
8868000000,4.2172599
8877000000,3.6933262
8886000000,4.2276268
8895000000,4.4638734
8904000000,4.0614529
8913000000,4.5327477
8922000000,4.1505675
8931000000,3.2702875
8940000000,3.9111168
8949000000,3.7269654
8958000000,3.2993212
8967000000,3.9273033
8976000000,2.9162645
8985000000,3.835289
8994000000,3.2594194
9003000000,2.6595602
9012000000,3.7490094
9021000000,2.5788429
9030000000,3.3244207
9039000000,3.5112374
9048000000,2.7724252
9057000000,3.1343265
9066000000,3.1029975
9075000000,3.1689627
9084000000,3.38167
9093000000,2.9244692
9102000000,3.6936736
9111000000,3.9541123
9120000000,3.1849873
9129000000,4.0109258
9138000000,3.3460321
9147000000,3.4445374
9156000000,4.2870092
9165000000,3.2264447
9174000000,2.9243312
9183000000,3.1177387
9192000000,2.2705967
9201000000,2.6076691
9210000000,3.0659735
9219000000,2.2645605
9228000000,2.6799531
9237000000,2.1294816
9246000000,2.6207948
9255000000,2.4360394
9264000000,1.8270761
9273000000,2.8287303
9282000000,2.850199
9291000000,2.7128766
9300000000,2.9326096
9309000000,2.6479421
9318000000,3.4819221
9327000000,2.6123922
9336000000,2.3068335
9345000000,2.4462945
9354000000,2.2212989
9363000000,2.3847244
9372000000,1.9167855
9381000000,2.2299588
9390000000,2.4210565
9399000000,2.0754328
9408000000,2.3950467
9417000000,1.7515626
9426000000,1.9901079
9435000000,1.8335476
9444000000,1.1242633
9453000000,1.3339446
9462000000,1.8153154
9471000000,1.9278082
9480000000,1.6899174
9489000000,1.9795928
9498000000,1.1104642
9507000000,1.8793488
9516000000,1.3708502
9525000000,1.3791294
9534000000,1.7965482
9543000000,1.3017304
9552000000,1.4000059
9561000000,1.2730983
9570000000,1.7421023
9579000000,1.4820867
9588000000,0.87271917
9597000000,0.61053073
9606000000,0.78129131
9615000000,0.4963285
9624000000,0.64190608
9633000000,0.55887115
9642000000,0.97726643
9651000000,0.68278593
9660000000,0.68018746
9669000000,0.60019433
9678000000,1.083672
9687000000,-0.042582147
9696000000,0.076217651
9705000000,0.5883376
9714000000,-0.13868555
9723000000,-0.055444792
9732000000,-0.1042366
9741000000,-0.77501816
9750000000,-0.88850951
9759000000,-1.5742401
9768000000,-1.2990993
9777000000,-1.7392508
9786000000,-1.081028
9795000000,-0.39429179
9804000000,-0.7554599
9813000000,-0.57694483
9822000000,-1.3031315
9831000000,-0.79092377
9840000000,-0.81005585
9849000000,-1.303072
9858000000,-1.3229376
9867000000,-0.89172071
9876000000,-1.1719741
9885000000,-1.2275816
9894000000,-1.7046537
9903000000,-3.1109838
9912000000,-2.8748448
9921000000,-3.6505685
9930000000,-5.656878
9939000000,-4.038362
9948000000,-5.1122847
9957000000,-4.2960696
9966000000,-4.3180685
9975000000,-3.5256772
9984000000,-3.2380538
9993000000,-3.576951
10002000000,-3.1898928
10011000000,-2.9451938
10020000000,-3.1766548
10029000000,-2.3703456
10038000000,-2.1999719
10047000000,-2.1964438
10056000000,-1.7082875
10065000000,-4.0574112
10074000000,-3.8585672
10083000000,-3.6725338
10092000000,-4.6414285
10101000000,-4.3774581
10110000000,-4.2879157
10119000000,-4.475131
10128000000,-3.6390414
10137000000,-5.3524313
10146000000,-4.59589
10155000000,-4.260231
10164000000,-4.6293263
10173000000,-4.5044327
10182000000,-5.105638
10191000000,-5.49965
10200000000,-4.4474683
10209000000,-4.1958418
10218000000,-3.8038597
10227000000,-3.5956779
10236000000,-4.1568451
10245000000,-4.2578163
10254000000,-4.4800124
10263000000,-4.845664
10272000000,-5.1768036
10281000000,-4.4545856
10290000000,-5.2409153
10299000000,-5.6669612
10308000000,-6.1796436
10317000000,-5.7530513
10326000000,-7.3160849
10335000000,-8.8143806
10344000000,-7.2496748
10353000000,-8.6291199
10362000000,-7.4307995
10371000000,-6.0254331
10380000000,-7.858129
10389000000,-6.9826031
10398000000,-5.2626081
10407000000,-6.9877133
10416000000,-4.6837478
10425000000,-4.4556131
10434000000,-6.3318877
10443000000,-4.7594242
10452000000,-4.4440203
10461000000,-6.8126273
10470000000,-6.2906275
10479000000,-7.124651
10488000000,-8.5381746
10497000000,-7.5624018
10506000000,-12.836503
10515000000,-9.7223368
10524000000,-9.9228973
10533000000,-9.9438419
10542000000,-9.192152
10551000000,-10.610085
10560000000,-9.2881746
10569000000,-10.499352
10578000000,-7.4320598
10587000000,-6.6445479
10596000000,-7.1737571
10605000000,-6.4748759
10614000000,-6.0882363
10623000000,-6.3722448
10632000000,-6.6511164
10641000000,-6.5221324
10650000000,-8.6870995
10659000000,-7.755219
10668000000,-7.2041845
10677000000,-7.9071612
10686000000,-8.1269836
10695000000,-8.5952005
10704000000,-7.1812558
10713000000,-7.9756956
10722000000,-9.3155851
10731000000,-8.4663801
10740000000,-8.7500114
10749000000,-7.7798982
10758000000,-7.0023718
10767000000,-7.5751948
10776000000,-5.4735384
10785000000,-7.044878
10794000000,-9.1401577
10803000000,-6.6689706
10812000000,-7.9256482
10821000000,-8.3060904
10830000000,-6.2160058
10839000000,-7.9891324
10848000000,-6.5916672
10857000000,-5.9125962
10866000000,-7.0194421
10875000000,-4.671936
10884000000,-4.7436028
10893000000,-6.2220755
10902000000,-4.4912148
10911000000,-4.7944503
10920000000,-2.9029744
10929000000,-3.2974768
10938000000,-4.6522918
10947000000,-4.9751868
10956000000,-4.9150534
10965000000,-5.9309635
10974000000,-6.0979519
10983000000,-6.213532
10992000000,-5.70574
11001000000,-5.4949751
11010000000,-5.9248872
11019000000,-4.370574
11028000000,-4.7971244
11037000000,-5.1521535
11046000000,-3.9169621
11055000000,-5.7442541
11064000000,-5.4318762
11073000000,-5.281775
11082000000,-6.5002689
11091000000,-4.0751081
11100000000,-4.7181358
11109000000,-4.5229688
11118000000,-4.6817732
11127000000,-6.1107292
11136000000,-4.6255836
11145000000,-5.5603027
11154000000,-5.5861659
11163000000,-4.2171721
11172000000,-4.2421303
11181000000,-4.8905382
11190000000,-5.4836836
11199000000,-6.0611439
11208000000,-5.6237774
11217000000,-5.0117502
11226000000,-5.0032611
11235000000,-2.6302252
11244000000,-4.2878366
11253000000,-4.8807826
11262000000,-3.280746
11271000000,-5.1049619
11280000000,-3.2393203
11289000000,-2.6282406
11298000000,-3.2560105
11307000000,-3.0401111
11316000000,-3.803777
11325000000,-3.5882275
11334000000,-3.6588938
11343000000,-4.6497054
11352000000,-3.5841727
11361000000,-5.3485823
11370000000,-7.1778049
11379000000,-5.8290434
11388000000,-5.0189939
11397000000,-5.9680152
11406000000,-3.65134
11415000000,-4.2677622
11424000000,-6.7750759
11433000000,-3.3659134
11442000000,-4.9870224
11451000000,-6.5927992
11460000000,-3.7567587
11469000000,-3.8631859
11478000000,-4.63936
11487000000,-4.7491546
11496000000,-3.8752778
11505000000,-5.9668508
11514000000,-6.2862902
11523000000,-5.3598495
11532000000,-5.041327
11541000000,-6.6060486
11550000000,-5.9171629
11559000000,-5.0271869
11568000000,-5.9845614
11577000000,-3.8134475
11586000000,-5.6823668
11595000000,-5.2008758
11604000000,-4.3326211
11613000000,-7.6412129
11622000000,-7.1232157
11631000000,-3.8613627
11640000000,-5.7941375
11649000000,-3.6197336
11658000000,-4.3313212
11667000000,-5.0222516
11676000000,-4.4312224
11685000000,-6.5167665
11694000000,-6.1473999
11703000000,-5.3054638
11712000000,-6.6547585
11721000000,-5.7791781
11730000000,-6.3340096
11739000000,-7.1413894
11748000000,-3.9889174
11757000000,-8.7496233
11766000000,-5.8663816
11775000000,-6.837347
11784000000,-8.8834705
11793000000,-5.8023577
11802000000,-5.3024912
11811000000,-6.4564009
11820000000,-3.2327764
11829000000,-7.0729327
11838000000,-5.3539734
11847000000,-5.0285707
11856000000,-6.9069467
11865000000,-5.7557154
11874000000,-7.6256256
11883000000,-6.4506993
11892000000,-5.9315844
11901000000,-7.5336399
11910000000,-6.5736432
11919000000,-6.0588226
11928000000,-7.1446476
11937000000,-8.3115263
11946000000,-5.8164945
11955000000,-8.4388103
11964000000,-7.9406843
11973000000,-7.219471
11982000000,-6.9029431
11991000000,-7.5222096
12000000000,-8.1787748
END

