!CSV A.01.01
!Keysight Technologies,N5222B,MY57181453,A.13.95.07
!Date: Monday, August 14, 2023 03:38:17
!Source: Standard

BEGIN CH1_DATA
Freq(Hz),S21 Log Mag(dB)
3000000000,-4.3533468
3009000000,-4.5082355
3018000000,-4.3762975
3027000000,-4.9360256
3036000000,-6.7443876
3045000000,-6.6726375
3054000000,-6.3409176
3063000000,-9.2455664
3072000000,-6.0804963
3081000000,-7.2958937
3090000000,-10.215015
3099000000,-6.3752966
3108000000,-9.628809
3117000000,-12.421051
3126000000,-7.6048832
3135000000,-10.112873
3144000000,-13.981664
3153000000,-8.3407507
3162000000,-12.162612
3171000000,-17.134464
3180000000,-10.606058
3189000000,-17.926527
3198000000,-14.297263
3207000000,-11.061584
3216000000,-17.169245
3225000000,-11.325908
3234000000,-9.7274284
3243000000,-11.453933
3252000000,-9.0858307
3261000000,-7.8933845
3270000000,-7.9204559
3279000000,-8.4390411
3288000000,-6.8038459
3297000000,-6.9146385
3306000000,-8.5334949
3315000000,-6.5739226
3324000000,-6.8780913
3333000000,-8.6400309
3342000000,-6.3668776
3351000000,-7.2929173
3360000000,-8.0233946
3369000000,-6.1927996
3378000000,-6.6986542
3387000000,-7.8383698
3396000000,-6.2764473
3405000000,-7.0831175
3414000000,-8.555624
3423000000,-7.6405067
3432000000,-8.9419575
3441000000,-9.7910728
3450000000,-9.7260056
3459000000,-10.838973
3468000000,-12.526578
3477000000,-12.363396
3486000000,-13.836975
3495000000,-16.603333
3504000000,-15.942517
3513000000,-15.533894
3522000000,-16.509655
3531000000,-18.176304
3540000000,-19.904249
3549000000,-27.794897
3558000000,-30.047518
3567000000,-33.137432
3576000000,-21.351984
3585000000,-17.405115
3594000000,-19.315237
3603000000,-17.101677
3612000000,-17.098991
3621000000,-20.820997
3630000000,-15.97236
3639000000,-17.050026
3648000000,-14.91612
3657000000,-12.951379
3666000000,-12.895211
3675000000,-11.383397
3684000000,-10.179178
3693000000,-10.782333
3702000000,-11.100679
3711000000,-11.551511
3720000000,-9.9480114
3729000000,-11.154515
3738000000,-12.652161
3747000000,-13.143934
3756000000,-14.226932
3765000000,-18.806713
3774000000,-14.423888
3783000000,-14.638351
3792000000,-13.003829
3801000000,-10.359789
3810000000,-10.779469
3819000000,-11.589389
3828000000,-10.966455
3837000000,-12.223706
3846000000,-13.165564
3855000000,-12.592227
3864000000,-13.040701
3873000000,-12.62106
3882000000,-11.877462
3891000000,-13.402986
3900000000,-13.817042
3909000000,-12.893916
3918000000,-9.311368
3927000000,-10.177755
3936000000,-10.260868
3945000000,-9.7526493
3954000000,-11.84287
3963000000,-12.151712
3972000000,-12.377041
3981000000,-17.674465
3990000000,-22.63088
3999000000,-20.999599
4008000000,-34.613213
4017000000,-23.161957
4026000000,-22.260534
4035000000,-21.252081
4044000000,-20.221342
4053000000,-19.731634
4062000000,-28.994848
4071000000,-17.269482
4080000000,-15.17944
4089000000,-17.160664
4098000000,-13.082042
4107000000,-13.713775
4116000000,-14.772439
4125000000,-14.009257
4134000000,-13.240451
4143000000,-14.320553
4152000000,-14.838346
4161000000,-15.236824
4170000000,-14.891854
4179000000,-18.318598
4188000000,-15.159943
4197000000,-14.594676
4206000000,-20.020821
4215000000,-18.48217
4224000000,-20.846018
4233000000,-27.710085
4242000000,-16.503664
4251000000,-18.655664
4260000000,-24.748993
4269000000,-21.135361
4278000000,-32.561935
4287000000,-27.212942
4296000000,-21.8326
4305000000,-25.173265
4314000000,-19.610605
4323000000,-16.132994
4332000000,-15.945365
4341000000,-12.937722
4350000000,-11.721256
4359000000,-13.349468
4368000000,-11.084723
4377000000,-10.934419
4386000000,-11.519365
4395000000,-11.017233
4404000000,-10.097273
4413000000,-10.036951
4422000000,-10.565565
4431000000,-11.748142
4440000000,-11.797271
4449000000,-15.167613
4458000000,-14.727237
4467000000,-13.794462
4476000000,-16.047789
4485000000,-13.650821
4494000000,-13.681989
4503000000,-15.803982
4512000000,-13.445962
4521000000,-13.720064
4530000000,-15.564018
4539000000,-15.886466
4548000000,-19.592438
4557000000,-28.503515
4566000000,-20.040699
4575000000,-21.267996
4584000000,-16.968407
4593000000,-15.322514
4602000000,-17.669462
4611000000,-15.67205
4620000000,-14.658173
4629000000,-15.662458
4638000000,-13.571308
4647000000,-12.803516
4656000000,-11.66772
4665000000,-10.69122
4674000000,-12.470807
4683000000,-12.041027
4692000000,-11.265662
4701000000,-11.652291
4710000000,-10.178916
4719000000,-10.126479
4728000000,-9.5475092
4737000000,-9.299881
4746000000,-9.4813566
4755000000,-8.8974485
4764000000,-8.4486904
4773000000,-7.545795
4782000000,-7.3646674
4791000000,-7.2689648
4800000000,-8.7104712
4809000000,-8.9043207
4818000000,-8.1131163
4827000000,-8.6470671
4836000000,-6.904686
4845000000,-6.8745966
4854000000,-7.1063619
4863000000,-5.3486466
4872000000,-6.1436906
4881000000,-6.0262666
4890000000,-5.1468148
4899000000,-5.6852708
4908000000,-5.727715
4917000000,-5.0130396
4926000000,-5.5561538
4935000000,-5.2936168
4944000000,-5.4197712
4953000000,-5.3621416
4962000000,-5.5109377
4971000000,-6.142868
4980000000,-6.6896796
4989000000,-6.140552
4998000000,-7.3485756
5007000000,-6.177928
5016000000,-6.1340904
5025000000,-6.8481116
5034000000,-5.2652407
5043000000,-6.4704642
5052000000,-6.613616
5061000000,-4.7871227
5070000000,-6.3601327
5079000000,-5.2015042
5088000000,-4.0227261
5097000000,-5.2170324
5106000000,-3.7294583
5115000000,-3.6325121
5124000000,-4.6092658
5133000000,-2.8952131
5142000000,-3.3077712
5151000000,-3.4641585
5160000000,-2.7819178
5169000000,-3.1046491
5178000000,-3.1369638
5187000000,-2.8299863
5196000000,-2.8975666
5205000000,-2.8383679
5214000000,-2.8538733
5223000000,-2.7328665
5232000000,-2.5803671
5241000000,-3.1558638
5250000000,-2.6948085
5259000000,-2.6170416
5268000000,-3.7089546
5277000000,-2.7782264
5286000000,-2.5298615
5295000000,-3.6910498
5304000000,-2.8217573
5313000000,-2.9749575
5322000000,-3.5181384
5331000000,-2.7438219
5340000000,-2.8122504
5349000000,-3.4339995
5358000000,-2.8890827
5367000000,-3.1063662
5376000000,-3.7249105
5385000000,-3.5417616
5394000000,-4.220366
5403000000,-3.9165244
5412000000,-3.8668737
5421000000,-3.9189019
5430000000,-3.6831946
5439000000,-4.5268478
5448000000,-4.4610124
5457000000,-4.4490294
5466000000,-5.0951171
5475000000,-4.1079445
5484000000,-4.0229836
5493000000,-3.813235
5502000000,-2.704293
5511000000,-2.4080913
5520000000,-2.1459537
5529000000,-1.1746268
5538000000,-1.7265667
5547000000,-1.1857209
5556000000,-0.84021264
5565000000,-1.1079131
5574000000,-0.82261354
5583000000,-0.86178976
5592000000,-1.4007192
5601000000,-0.89017379
5610000000,-1.0878963
5619000000,-1.6286699
5628000000,-1.4313699
5637000000,-1.7793909
5646000000,-1.3997123
5655000000,-1.2138698
5664000000,-1.059224
5673000000,-1.0651696
5682000000,-0.68864012
5691000000,-0.70563698
5700000000,-0.61053431
5709000000,-0.41778421
5718000000,-0.6999141
5727000000,-0.26005358
5736000000,-0.35107908
5745000000,-0.6499815
5754000000,-0.29428288
5763000000,-0.50337762
5772000000,-0.33247486
5781000000,0.31898504
5790000000,-0.0099757696
5799000000,0.14102717
5808000000,0.14683622
5817000000,-0.29531917
5826000000,0.57662392
5835000000,0.55930901
5844000000,0.9168539
5853000000,1.4473934
5862000000,1.1695242
5871000000,1.7448075
5880000000,1.8698533
5889000000,1.3484639
5898000000,1.9839767
5907000000,1.6866145
5916000000,1.2500259
5925000000,1.7459626
5934000000,1.3951107
5943000000,1.392889
5952000000,2.09149
5961000000,1.6013227
5970000000,2.1978528
5979000000,2.7370615
5988000000,2.4103661
5997000000,3.1523201
6006000000,3.088671
6015000000,3.3615611
6024000000,3.947504
6033000000,3.4999189
6042000000,3.5588365
6051000000,3.9307606
6060000000,2.8998399
6069000000,3.1699929
6078000000,3.2151399
6087000000,2.2601907
6096000000,3.038434
6105000000,2.6137428
6114000000,2.5324914
6123000000,2.8999379
6132000000,2.7072504
6141000000,2.8264878
6150000000,2.7549663
6159000000,2.8857517
6168000000,3.1775303
6177000000,2.8473067
6186000000,2.927597
6195000000,3.0637157
6204000000,2.7389896
6213000000,2.9907229
6222000000,2.9546442
6231000000,2.635572
6240000000,3.1606355
6249000000,3.0291708
6258000000,2.7675891
6267000000,3.3355973
6276000000,3.046551
6285000000,3.136009
6294000000,3.359591
6303000000,3.3931885
6312000000,3.4888487
6321000000,3.8286877
6330000000,3.3939047
6339000000,3.7583625
6348000000,4.0393987
6357000000,3.8084619
6366000000,3.8285711
6375000000,4.040988
6384000000,3.8347552
6393000000,3.8857849
6402000000,3.8839149
6411000000,3.7079208
6420000000,4.178021
6429000000,4.2775474
6438000000,4.1242652
6447000000,4.1596322
6456000000,4.319519
6465000000,4.2764039
6474000000,4.612906
6483000000,4.4304233
6492000000,4.7188025
6501000000,4.4673061
6510000000,4.5187826
6519000000,4.6439886
6528000000,4.5609484
6537000000,4.8983312
6546000000,5.0923996
6555000000,4.6066608
6564000000,5.1351852
6573000000,4.9883523
6582000000,4.9767213
6591000000,5.2868276
6600000000,4.9348702
6609000000,5.2274299
6618000000,5.1530342
6627000000,5.2685728
6636000000,5.3759079
6645000000,5.6557274
6654000000,5.6476555
6663000000,5.7965178
6672000000,5.7769117
6681000000,5.9572864
6690000000,5.9415135
6699000000,6.1641893
6708000000,6.2125711
6717000000,6.2227654
6726000000,6.4114461
6735000000,6.6138783
6744000000,6.5582681
6753000000,6.3960142
6762000000,6.4989247
6771000000,6.1314378
6780000000,6.1027694
6789000000,6.2880526
6798000000,6.1814952
6807000000,6.0407248
6816000000,6.1418018
6825000000,5.9553289
6834000000,6.0976286
6843000000,5.9981794
6852000000,6.1082144
6861000000,6.1225052
6870000000,6.4295363
6879000000,6.1448541
6888000000,6.4161973
6897000000,6.3371472
6906000000,6.268024
6915000000,6.8943219
6924000000,6.8319974
6933000000,6.6707687
6942000000,6.7450686
6951000000,6.6914387
6960000000,6.9325237
6969000000,6.8839378
6978000000,6.6664577
6987000000,6.9013996
6996000000,7.0283651
7005000000,7.1503506
7014000000,7.0595703
7023000000,7.5502896
7032000000,7.5446773
7041000000,7.4333019
7050000000,7.6740103
7059000000,7.7769995
7068000000,7.8373241
7077000000,8.2222776
7086000000,8.2447681
7095000000,7.9582839
7104000000,8.3087654
7113000000,8.294241
7122000000,8.1777658
7131000000,7.9200969
7140000000,8.0997162
7149000000,8.2869282
7158000000,8.3926058
7167000000,8.497961
7176000000,8.4194107
7185000000,8.9383106
7194000000,8.8522835
7203000000,8.9161282
7212000000,9.092248
7221000000,9.0648928
7230000000,8.9021454
7239000000,9.1998196
7248000000,9.2275734
7257000000,8.9288635
7266000000,8.5956621
7275000000,9.0965834
7284000000,8.9561834
7293000000,8.4948282
7302000000,8.7504768
7311000000,8.6504393
7320000000,9.0364571
7329000000,8.7717352
7338000000,8.6980009
7347000000,8.4965134
7356000000,8.3201256
7365000000,8.3969412
7374000000,8.7560596
7383000000,8.1123371
7392000000,8.5624208
7401000000,8.4377937
7410000000,8.5733776
7419000000,8.507309
7428000000,8.9704084
7437000000,9.0816956
7446000000,9.046917
7455000000,8.9258356
7464000000,8.4578619
7473000000,8.9294281
7482000000,8.6303425
7491000000,8.7227478
7500000000,8.9167929
7509000000,8.6819191
7518000000,8.7827377
7527000000,8.7745686
7536000000,8.5393076
7545000000,8.8703041
7554000000,8.3985596
7563000000,8.4713945
7572000000,8.3881836
7581000000,8.6155519
7590000000,9.0012045
7599000000,8.7870827
7608000000,9.1364536
7617000000,8.7999096
7626000000,8.8686228
7635000000,8.9062033
7644000000,8.914341
7653000000,9.2387486
7662000000,9.1141777
7671000000,9.3016024
7680000000,9.1476965
7689000000,9.1136732
7698000000,9.1798706
7707000000,8.9554396
7716000000,8.9148674
7725000000,8.9152327
7734000000,8.8228817
7743000000,9.2732658
7752000000,8.8069696
7761000000,8.7121706
7770000000,8.9068909
7779000000,9.0583162
7788000000,8.8830366
7797000000,9.2349854
7806000000,9.0735521
7815000000,8.6653337
7824000000,8.5237703
7833000000,8.9431725
7842000000,8.5826273
7851000000,9.0074263
7860000000,8.8769274
7869000000,9.0822287
7878000000,8.6994743
7887000000,8.9013424
7896000000,8.9113779
7905000000,9.2190247
7914000000,8.9558697
7923000000,8.8562374
7932000000,9.3323221
7941000000,8.6997795
7950000000,9.1611814
7959000000,9.3611441
7968000000,9.0384235
7977000000,9.3374023
7986000000,9.5805006
7995000000,9.3871584
8004000000,9.3655758
8013000000,9.467639
8022000000,9.506752
8031000000,9.3261766
8040000000,9.2931376
8049000000,9.5373907
8058000000,9.4578228
8067000000,9.3484793
8076000000,8.6982002
8085000000,8.9283991
8094000000,8.9221277
8103000000,9.1643448
8112000000,9.071022
8121000000,9.1710396
8130000000,8.8924484
8139000000,8.9000893
8148000000,9.0062151
8157000000,9.1441307
8166000000,9.152709
8175000000,8.9599361
8184000000,9.0479927
8193000000,9.4724808
8202000000,9.2311182
8211000000,9.4176617
8220000000,9.6517801
8229000000,9.1505213
8238000000,9.3295851
8247000000,9.2642746
8256000000,9.3131104
8265000000,9.420331
8274000000,8.9808617
8283000000,9.2248783
8292000000,8.9835043
8301000000,9.3289623
8310000000,8.8100128
8319000000,8.8934069
8328000000,9.1847477
8337000000,9.0930576
8346000000,8.9736938
8355000000,9.1631641
8364000000,8.9434042
8373000000,9.233098
8382000000,8.7201233
8391000000,9.1076746
8400000000,9.1226206
8409000000,9.0253639
8418000000,8.8619852
8427000000,9.1283321
8436000000,8.9230413
8445000000,8.6547832
8454000000,9.1111431
8463000000,9.0698032
8472000000,8.7939367
8481000000,9.0601387
8490000000,9.0250731
8499000000,8.9595013
8508000000,9.0087662
8517000000,8.8203478
8526000000,8.7991858
8535000000,8.877944
8544000000,8.981473
8553000000,8.7693233
8562000000,9.0362005
8571000000,8.6688137
8580000000,9.1103535
8589000000,8.8918591
8598000000,9.3902826
8607000000,9.1578856
8616000000,9.1520891
8625000000,8.6923771
8634000000,8.9417992
8643000000,8.7395964
8652000000,8.9101057
8661000000,8.8993139
8670000000,8.6330881
8679000000,9.034009
8688000000,8.8704557
8697000000,8.9693336
8706000000,8.4312344
8715000000,8.7407064
8724000000,8.8218613
8733000000,8.6664934
8742000000,8.6203928
8751000000,8.9471884
8760000000,8.5003052
8769000000,8.8304644
8778000000,9.0351353
8787000000,8.7791004
8796000000,8.8741083
8805000000,8.5426512
8814000000,8.5100098
8823000000,8.581008
8832000000,9.0858727
8841000000,9.0378599
8850000000,8.5239544
8859000000,8.4229784
8868000000,8.5230131
8877000000,8.3850222
8886000000,8.3280973
8895000000,8.4370317
8904000000,8.347537
8913000000,8.3546219
8922000000,8.39361
8931000000,7.898191
8940000000,7.7843022
8949000000,8.6491804
8958000000,7.5642171
8967000000,7.8599873
8976000000,7.4474888
8985000000,7.6068172
8994000000,7.6723027
9003000000,7.4136896
9012000000,7.7605643
9021000000,7.4787698
9030000000,7.6704831
9039000000,7.5283728
9048000000,7.4691262
9057000000,7.2057924
9066000000,6.8846898
9075000000,7.4312949
9084000000,6.6915174
9093000000,6.6340203
9102000000,7.0538926
9111000000,6.5457115
9120000000,6.7070889
9129000000,6.2941408
9138000000,6.2669425
9147000000,6.3920088
9156000000,6.8268666
9165000000,6.4576926
9174000000,6.4475222
9183000000,6.3294063
9192000000,6.591073
9201000000,6.4062648
9210000000,6.7136726
9219000000,6.7411304
9228000000,6.1729822
9237000000,6.3805084
9246000000,6.2911186
9255000000,6.0671115
9264000000,6.085331
9273000000,6.1766086
9282000000,5.9118013
9291000000,5.5911379
9300000000,5.2306223
9309000000,5.4251022
9318000000,5.4417367
9327000000,5.0806775
9336000000,5.0924363
9345000000,4.8246646
9354000000,4.8622561
9363000000,4.7216539
9372000000,4.4021173
9381000000,5.0647717
9390000000,4.9380302
9399000000,5.0148258
9408000000,5.1493359
9417000000,4.74508
9426000000,4.8468418
9435000000,4.7056761
9444000000,4.1907654
9453000000,4.3365402
9462000000,4.5440378
9471000000,4.3854771
9480000000,4.0263395
9489000000,4.1347241
9498000000,3.5835955
9507000000,3.7033541
9516000000,3.3079896
9525000000,3.2974036
9534000000,3.3224578
9543000000,3.346518
9552000000,3.0506566
9561000000,2.4469175
9570000000,3.4134307
9579000000,3.5322421
9588000000,2.7704577
9597000000,2.9543056
9606000000,3.3265245
9615000000,3.3476791
9624000000,3.3637924
9633000000,3.1056325
9642000000,3.7445149
9651000000,3.0569396
9660000000,3.7170315
9669000000,3.3409495
9678000000,3.7038271
9687000000,3.0756977
9696000000,3.0012407
9705000000,2.3211825
9714000000,2.5897934
9723000000,2.6284575
9732000000,1.7164396
9741000000,1.9954983
9750000000,1.96711
9759000000,1.581979
9768000000,1.0010649
9777000000,0.87408638
9786000000,0.99700046
9795000000,1.5230051
9804000000,1.3260018
9813000000,1.21714
9822000000,0.15518728
9831000000,1.1571031
9840000000,0.66244566
9849000000,0.17659603
9858000000,1.1204596
9867000000,1.1693412
9876000000,1.4426328
9885000000,1.4821765
9894000000,1.479405
9903000000,1.1178738
9912000000,1.2472085
9921000000,1.1399369
9930000000,0.79015958
9939000000,0.96521491
9948000000,0.57611668
9957000000,0.31176856
9966000000,0.11291748
9975000000,0.87320518
9984000000,-0.021514127
9993000000,-0.656959
10002000000,-0.23157337
10011000000,-0.79504883
10020000000,-1.7793419
10029000000,-1.6042234
10038000000,-2.1879458
10047000000,-2.1278517
10056000000,-1.1419511
10065000000,-1.5790229
10074000000,-2.8140683
10083000000,-0.93021226
10092000000,-1.2583683
10101000000,-1.6814659
10110000000,-1.1204364
10119000000,-1.0659989
10128000000,-1.4561671
10137000000,-1.7547245
10146000000,-1.634214
10155000000,-1.567414
10164000000,-0.9776727
10173000000,-1.7058992
10182000000,-2.1340768
10191000000,-1.9716834
10200000000,-2.4001279
10209000000,-2.3816276
10218000000,-2.3502164
10227000000,-2.3689566
10236000000,-2.2429004
10245000000,-1.8935202
10254000000,-1.4788203
10263000000,-2.1569896
10272000000,-2.0052476
10281000000,-1.2034615
10290000000,-1.3112849
10299000000,-1.9064209
10308000000,-1.7487661
10317000000,-1.5758618
10326000000,-2.2883158
10335000000,-1.6303177
10344000000,-1.8857347
10353000000,-2.9992158
10362000000,-2.9256334
10371000000,-3.7265399
10380000000,-3.4610062
10389000000,-5.4595957
10398000000,-5.8952498
10407000000,-5.3471851
10416000000,-3.959374
10425000000,-4.0679822
10434000000,-4.3420281
10443000000,-3.9809327
10452000000,-2.1591449
10461000000,-2.5489583
10470000000,-2.5951278
10479000000,-2.0068314
10488000000,-1.9609488
10497000000,-2.0327344
10506000000,-1.9700068
10515000000,-2.3493824
10524000000,-1.5591521
10533000000,-2.3034949
10542000000,-3.3439443
10551000000,-3.0106924
10560000000,-3.5124366
10569000000,-4.6200018
10578000000,-2.4226534
10587000000,-4.0631099
10596000000,-4.9700665
10605000000,-3.7306104
10614000000,-4.169621
10623000000,-4.0580325
10632000000,-4.4316173
10641000000,-5.0311074
10650000000,-3.5455463
10659000000,-4.0677614
10668000000,-2.4418087
10677000000,-2.984957
10686000000,-3.421957
10695000000,-3.0690269
10704000000,-2.4270906
10713000000,-3.4228172
10722000000,-3.039747
10731000000,-3.0035272
10740000000,-4.0281043
10749000000,-3.5568738
10758000000,-4.2394733
10767000000,-3.0750477
10776000000,-3.0778277
10785000000,-4.6876187
10794000000,-3.0427554
10803000000,-4.1544199
10812000000,-3.9044952
10821000000,-4.8296347
10830000000,-4.2231736
10839000000,-4.5275912
10848000000,-3.0021894
10857000000,-3.0898314
10866000000,-2.60888
10875000000,-2.6070011
10884000000,-2.3552222
10893000000,-3.20526
10902000000,-2.9160032
10911000000,-3.5781515
10920000000,-2.3755376
10929000000,-2.2251539
10938000000,-2.4985957
10947000000,-3.3469207
10956000000,-2.8832541
10965000000,-2.1837254
10974000000,-2.9680924
10983000000,-3.040447
10992000000,-2.4400866
11001000000,-2.7482998
11010000000,-2.9016526
11019000000,-2.3530545
11028000000,-2.1468706
11037000000,-1.8261926
11046000000,-2.2479708
11055000000,-2.178014
11064000000,-2.4298768
11073000000,-2.4156561
11082000000,-3.0129173
11091000000,-2.2895463
11100000000,-2.841501
11109000000,-2.8972304
11118000000,-3.8258452
11127000000,-3.9320869
11136000000,-3.4852922
11145000000,-4.1102624
11154000000,-2.6445389
11163000000,-2.8939862
11172000000,-2.5778179
11181000000,-1.384523
11190000000,-1.8516247
11199000000,-0.63939744
11208000000,-0.77162534
11217000000,-1.3768448
11226000000,0.36246446
11235000000,0.20442265
11244000000,-0.59471011
11253000000,-0.081129879
11262000000,-0.5458352
11271000000,-1.9920304
11280000000,-0.6576609
11289000000,-1.5599778
11298000000,-1.411649
11307000000,-2.3181901
11316000000,-2.0569472
11325000000,-1.0488753
11334000000,-1.3294692
11343000000,-2.1112192
11352000000,-0.86934197
11361000000,-1.2737601
11370000000,-2.2298625
11379000000,-0.31392878
11388000000,-0.16148125
11397000000,0.65329152
11406000000,0.233679
11415000000,0.63399655
11424000000,0.89994615
11433000000,0.98821646
11442000000,1.6038616
11451000000,0.058286961
11460000000,0.49173614
11469000000,1.4612466
11478000000,0.41915897
11487000000,-0.29153982
11496000000,0.82954371
11505000000,-0.49076238
11514000000,-1.8035625
11523000000,0.96380675
11532000000,0.13840094
11541000000,0.54244876
11550000000,0.94988626
11559000000,0.63637477
11568000000,0.6165024
11577000000,0.85587054
11586000000,0.63546216
11595000000,2.5333977
11604000000,0.62498367
11613000000,1.205286
11622000000,1.4522717
11631000000,0.84368062
11640000000,1.9843124
11649000000,1.0749748
11658000000,0.68437737
11667000000,0.99130714
11676000000,0.16669776
11685000000,0.37976223
11694000000,1.1797968
11703000000,1.0422429
11712000000,0.94827652
11721000000,1.7159758
11730000000,1.8469738
11739000000,2.7144039
11748000000,2.8341269
11757000000,1.116171
11766000000,2.4248209
11775000000,2.0812776
11784000000,3.2959354
11793000000,2.2413769
11802000000,3.1378267
11811000000,4.1756387
11820000000,3.5056849
11829000000,2.910162
11838000000,3.2934203
11847000000,3.328918
11856000000,3.0486772
11865000000,3.7941236
11874000000,2.6169696
11883000000,2.1375716
11892000000,2.6007335
11901000000,3.1609259
11910000000,3.0894313
11919000000,3.6254535
11928000000,2.6611061
11937000000,2.8723741
11946000000,3.1763172
11955000000,2.7942884
11964000000,3.159884
11973000000,3.3829961
11982000000,3.5344031
11991000000,3.2843606
12000000000,4.77352
END

